[SAMPLE]
{
Sample	1
Well	2:9
FileName	Carreira - RG-B-027d_15'152985-1_20201127
SampleID	Carreira - RG-B-027d_15'152985-1_20201127
SampleDescription	RG-B-027d_15'
Date	27-Nov-2020
Time	16:01:50
JobCode	Carreira - RG-B-027d_15'152985
TaskCode
UserName	Carreira - xxx
LabName
Instrument	ACQ-SQD2#LCA574
Conditions
Submitter	Carreira - xxx
SampleType	0
Plate	01TL,XY,SD,1: 6,2: 8,3:140.0,4:140.0,5:  0.0,6:  0.0,7:O,8:O,9:1280.0,10:860.0,11:320.0,12:120.0,13:150.0,14: 83.0
QCBatchName	C:\MassLynx\OALogin\BatchDB\SQ01_QC_2018_271.rpt
QCFileName	SQ01_QC_2018_271
QCDate	11/03/2019
QCTime	06:07:36
QCStatus	Fail
QCReason1
QCReason2	Intensity
Method	E:\Masslynx Projects\MoBiAS open access.PRO\MethDB\High_Mass_PosNeg LC_Fast_Splitter_OFF.olp
Process	C:\MassLynx\OpenLynx.exe
MSTune	Instrument_OA_settings_15Dec2017
MSMethod	FAST_HighMass_From500o3072Da_PosNeg
InletMethod	FAST_ACN_H2O_FullRange_Splitter_OFF_NEU
PreRunMethod
PostRunMethod
SwitchMethod	Switch_ACN_H2O_FullRange_and_Polar
FractionMethod
AcquisitionProcess
AcquisitionProcessParameters
AcquisitionProcessOptions
InjectionVolume	2.0000
ReportScheme	E:\Masslynx Projects\MoBiAS open access.PRO\MoBiAS_Report_Settings_Standard_Report.ors
SampleReportEnable	1
SampleReportFormat	E:\Masslynx Projects\MoBiAS open access.PRO\MoBiAS_Report_Settings_Standard_Report.ors
AnalysisTime	3.5000
ColumnName	 ACQUITY UPLC® BEH C18 1.7µm
Spare1
Spare2
Spare3
Spare4
Spare5
[COMPOUND]
{
;Mono Mass		Formula
1532.0000	
}
[FRACTIONRESULTS]
{
}
[FRACTION]
{
}
[FUNCTION]
{
Function	1
IonMode	ES+ 
Type	MS 
Description	(500:3072) 
[SPECTRUM]
{
ProcDesc	Center (Top,4, Ar); Smooth (Mn, 2x0.75); Subtract (1,40.00 ,0.010); Combine (42:47-(21:28+71:78))
State	Diversity fail
Peak ID	1
Peak Ref	36
Time	0.3233
TIC	175187
BPI	25295
BPM	580.0204
Continuum	FALSE
Saved	FALSE
[MASSES]
{
;Mass	Exp. Mass	Obs. Mass	% BPI	Int. Abs	Adducted Formula
1532.0000	1555.0000	0.0000	0.00	0.00	
1532.0000	1533.0000	0.0000	0.00	0.00	
}
[RESULTS]
{
;Mass	Found	% BPI	% Purity	Confirmed	Status
1532.0000	0	0.00	0.00	0	
}
[MS]
{
;Mass	% BPI
529.02	44.066
555.84	59.188
578.41	90.532
580.02	100.000
587.29	63.757
606.52	62.680
611.34	84.978
706.26	75.996
742.72	64.771
836.10	46.594
}
}
[SPECTRUM]
{
ProcDesc	Center (Top,4, Ar); Smooth (Mn, 2x0.75); Subtract (1,40.00 ,0.010); Combine (227:233-(207:213+249:256))
State	Diversity fail
Peak ID	2
Peak Ref	41
Time	1.6833
TIC	18344398
BPI	4465359
BPM	548.5728
Continuum	FALSE
Saved	FALSE
[MASSES]
{
;Mass	Exp. Mass	Obs. Mass	% BPI	Int. Abs	Adducted Formula
1532.0000	1555.0000	0.0000	0.00	0.00	
1532.0000	1533.0000	0.0000	0.00	0.00	
}
[RESULTS]
{
;Mass	Found	% BPI	% Purity	Confirmed	Status
1532.0000	0	0.00	0.00	0	
}
[MS]
{
;Mass	% BPI
528.51	10.633
536.80	87.478
537.51	38.863
548.57	100.000
549.86	56.207
550.50	74.149
555.58	15.813
556.35	9.527
606.32	10.394
846.26	7.753
}
}
[SPECTRUM]
{
ProcDesc	Center (Top,4, Ar); Smooth (Mn, 2x0.75); Subtract (1,40.00 ,0.010); Combine (235:241-(212:218+255:261))
State	Diversity fail
Peak ID	3
Peak Ref	1
Time	1.7407
TIC	129671944
BPI	37274392
BPM	909.8025
Continuum	FALSE
Saved	FALSE
[MASSES]
{
;Mass	Exp. Mass	Obs. Mass	% BPI	Int. Abs	Adducted Formula
1532.0000	1555.0000	0.0000	0.00	0.00	
1532.0000	1533.0000	0.0000	0.00	0.00	
}
[RESULTS]
{
;Mass	Found	% BPI	% Purity	Confirmed	Status
1532.0000	0	0.00	0.00	0	
}
[MS]
{
;Mass	% BPI
548.89	76.612
562.53	51.456
596.03	20.986
909.80	100.000
910.64	46.724
911.80	14.515
1096.63	14.108
1097.53	5.928
1123.77	11.396
1124.35	6.159
}
}
[SPECTRUM]
{
ProcDesc	Center (Top,4, Ar); Smooth (Mn, 2x0.75); Subtract (1,40.00 ,0.010); Combine (240:245-(219:226+259:266))
State	Diversity fail
Peak ID	4
Peak Ref	42
Time	1.7733
TIC	139970352
BPI	72039936
BPM	553.4604
Continuum	FALSE
Saved	FALSE
[MASSES]
{
;Mass	Exp. Mass	Obs. Mass	% BPI	Int. Abs	Adducted Formula
1532.0000	1555.0000	0.0000	0.00	0.00	
1532.0000	1533.0000	0.0000	0.00	0.00	
}
[RESULTS]
{
;Mass	Found	% BPI	% Purity	Confirmed	Status
1532.0000	0	0.00	0.00	0	
}
[MS]
{
;Mass	% BPI
527.61	5.452
535.39	10.128
539.89	4.833
545.36	8.686
553.46	100.000
595.97	38.258
607.67	6.666
801.63	5.867
909.61	9.508
1190.59	4.897
}
}
[SPECTRUM]
{
ProcDesc	Center (Top,4, Ar); Smooth (Mn, 2x0.75); Subtract (1,40.00 ,0.010); Combine (254:260-(235:241+273:279))
State	Diversity fail
Peak ID	6
Peak Ref	3
Time	1.8800
TIC	56196088
BPI	11328063
BPM	589.4741
Continuum	FALSE
Saved	FALSE
[MASSES]
{
;Mass	Exp. Mass	Obs. Mass	% BPI	Int. Abs	Adducted Formula
1532.0000	1555.0000	0.0000	0.00	0.00	
1532.0000	1533.0000	0.0000	0.00	0.00	
}
[RESULTS]
{
;Mass	Found	% BPI	% Purity	Confirmed	Status
1532.0000	0	0.00	0.00	0	
}
[MS]
{
;Mass	% BPI
564.65	30.990
575.45	47.006
589.47	100.000
607.74	83.253
615.46	31.624
747.42	40.831
748.06	30.961
775.84	50.524
848.32	49.942
849.09	30.949
}
}
[SPECTRUM]
{
ProcDesc	Center (Top,4, Ar); Smooth (Mn, 2x0.75); Subtract (1,40.00 ,0.010); Combine (261:267-(239:245+284:290))
State	Diversity fail
Peak ID	7
Peak Ref	4
Time	1.9313
TIC	76853656
BPI	39126856
BPM	576.9337
Continuum	FALSE
Saved	FALSE
[MASSES]
{
;Mass	Exp. Mass	Obs. Mass	% BPI	Int. Abs	Adducted Formula
1532.0000	1555.0000	0.0000	0.00	0.00	
1532.0000	1533.0000	0.0000	0.00	0.00	
}
[RESULTS]
{
;Mass	Found	% BPI	% Purity	Confirmed	Status
1532.0000	0	0.00	0.00	0	
}
[MS]
{
;Mass	% BPI
559.96	5.935
576.93	100.000
589.41	9.642
636.16	4.212
675.46	4.303
838.61	4.637
848.32	21.905
849.35	9.540
1152.71	32.473
1154.64	3.774
}
}
[SPECTRUM]
{
ProcDesc	Center (Top,4, Ar); Smooth (Mn, 2x0.75); Subtract (1,40.00 ,0.010); Combine (268:274-(250:256+288:294))
State	Diversity fail
Peak ID	8
Peak Ref	5
Time	1.9826
TIC	18168626
BPI	7329155
BPM	525.6783
Continuum	FALSE
Saved	FALSE
[MASSES]
{
;Mass	Exp. Mass	Obs. Mass	% BPI	Int. Abs	Adducted Formula
1532.0000	1555.0000	0.0000	0.00	0.00	
1532.0000	1533.0000	0.0000	0.00	0.00	
}
[RESULTS]
{
;Mass	Found	% BPI	% Purity	Confirmed	Status
1532.0000	0	0.00	0.00	0	
}
[MS]
{
;Mass	% BPI
525.68	100.000
604.33	9.811
681.44	8.650
682.34	13.191
848.39	48.164
892.82	9.739
961.96	17.628
1050.58	12.679
1051.74	13.008
1152.58	15.025
}
}
[SPECTRUM]
{
ProcDesc	Center (Top,4, Ar); Smooth (Mn, 2x0.75); Subtract (1,40.00 ,0.010); Combine (277:283-(254:260+298:304))
State	Diversity fail
Peak ID	9
Peak Ref	16
Time	2.0486
TIC	250050096
BPI	103732872
BPM	890.7665
Continuum	FALSE
Saved	FALSE
[MASSES]
{
;Mass	Exp. Mass	Obs. Mass	% BPI	Int. Abs	Adducted Formula
1532.0000	1555.0000	0.0000	0.00	0.00	
1532.0000	1533.0000	0.0000	0.00	0.00	
}
[RESULTS]
{
;Mass	Found	% BPI	% Purity	Confirmed	Status
1532.0000	0	0.00	0.00	0	
}
[MS]
{
;Mass	% BPI
876.55	3.825
877.71	2.072
890.77	100.000
891.60	60.213
919.77	8.440
930.77	26.722
931.60	15.818
934.82	1.676
970.83	12.345
971.67	9.941
}
}
[SPECTRUM]
{
ProcDesc	Center (Top,4, Ar); Smooth (Mn, 2x0.75); Subtract (1,40.00 ,0.010); Combine (285:291-(254:260+308:314))
State	Diversity fail
Peak ID	11
Peak Ref	6
Time	2.1072
TIC	266383392
BPI	108714272
BPM	970.7700
Continuum	FALSE
Saved	FALSE
[MASSES]
{
;Mass	Exp. Mass	Obs. Mass	% BPI	Int. Abs	Adducted Formula
1532.0000	1555.0000	0.0000	0.00	0.00	
1532.0000	1533.0000	0.0000	0.00	0.00	
}
[RESULTS]
{
;Mass	Found	% BPI	% Purity	Confirmed	Status
1532.0000	0	0.00	0.00	0	
}
[MS]
{
;Mass	% BPI
890.70	13.356
891.67	5.730
892.63	2.522
930.77	43.487
968.78	20.586
970.77	100.000
971.73	50.652
984.73	2.001
1022.54	2.638
1022.93	4.058
}
}
[SPECTRUM]
{
ProcDesc	Center (Top,4, Ar); Smooth (Mn, 2x0.75); Subtract (1,40.00 ,0.010); Combine (294:300-(274:280+318:324))
State	Diversity fail
Peak ID	12
Peak Ref	18
Time	2.1732
TIC	175647072
BPI	69103600
BPM	703.4952
Continuum	FALSE
Saved	FALSE
[MASSES]
{
;Mass	Exp. Mass	Obs. Mass	% BPI	Int. Abs	Adducted Formula
1532.0000	1555.0000	0.0000	0.00	0.00	
1532.0000	1533.0000	0.0000	0.00	0.00	
}
[RESULTS]
{
;Mass	Found	% BPI	% Purity	Confirmed	Status
1532.0000	0	0.00	0.00	0	
}
[MS]
{
;Mass	% BPI
703.50	100.000
704.27	38.763
970.83	22.590
971.67	9.181
1010.84	10.023
1011.74	7.075
1048.91	7.482
1406.13	24.807
1407.03	20.595
1407.80	13.664
}
}
[SPECTRUM]
{
ProcDesc	Center (Top,4, Ar); Smooth (Mn, 2x0.75); Subtract (1,40.00 ,0.010); Combine (309:315-(288:294+328:334))
State	Diversity fail
Peak ID	13
Peak Ref	8
Time	2.2832
TIC	37857592
BPI	15438812
BPM	924.5941
Continuum	FALSE
Saved	FALSE
[MASSES]
{
;Mass	Exp. Mass	Obs. Mass	% BPI	Int. Abs	Adducted Formula
1532.0000	1555.0000	0.0000	0.00	0.00	
1532.0000	1533.0000	0.0000	0.00	0.00	
}
[RESULTS]
{
;Mass	Found	% BPI	% Purity	Confirmed	Status
1532.0000	0	0.00	0.00	0	
}
[MS]
{
;Mass	% BPI
559.57	22.107
624.52	16.093
738.67	8.897
748.06	48.341
914.50	10.811
924.59	100.000
943.50	7.818
1476.81	6.522
1494.82	17.158
1495.53	7.462
}
}
[SPECTRUM]
{
ProcDesc	Center (Top,4, Ar); Smooth (Mn, 2x0.75); Subtract (1,40.00 ,0.010); Combine (318:324-(298:304+340:346))
State	Diversity fail
Peak ID	14
Peak Ref	19
Time	2.3491
TIC	370326720
BPI	169521712
BPM	755.1359
Continuum	FALSE
Saved	FALSE
[MASSES]
{
;Mass	Exp. Mass	Obs. Mass	% BPI	Int. Abs	Adducted Formula
1532.0000	1555.0000	0.0000	0.00	0.00	
1532.0000	1533.0000	0.0000	0.00	0.00	
}
[RESULTS]
{
;Mass	Found	% BPI	% Purity	Confirmed	Status
1532.0000	0	0.00	0.00	0	
}
[MS]
{
;Mass	% BPI
503.81	20.346
519.38	2.087
602.46	9.630
741.24	1.660
755.14	100.000
806.26	1.524
871.60	4.767
1509.04	28.396
1509.75	25.346
1510.58	24.698
}
}
[SPECTRUM]
{
ProcDesc	Center (Top,4, Ar); Smooth (Mn, 2x0.75); Subtract (1,40.00 ,0.010); Combine (320:326-(294:300+341:347))
State	Diversity fail
Peak ID	15
Peak Ref	9
Time	2.3638
TIC	428349088
BPI	200633456
BPM	755.2003
Continuum	FALSE
Saved	FALSE
[MASSES]
{
;Mass	Exp. Mass	Obs. Mass	% BPI	Int. Abs	Adducted Formula
1532.0000	1555.0000	0.0000	0.00	0.00	
1532.0000	1533.0000	0.0000	0.00	0.00	
}
[RESULTS]
{
;Mass	Found	% BPI	% Purity	Confirmed	Status
1532.0000	0	0.00	0.00	0	
}
[MS]
{
;Mass	% BPI
503.81	18.919
536.29	1.779
602.40	9.323
741.24	2.000
755.20	100.000
871.60	2.176
1509.04	28.443
1509.75	26.639
1510.58	20.771
1512.64	3.450
}
}
[SPECTRUM]
{
ProcDesc	Center (Top,4, Ar); Smooth (Mn, 2x0.75); Subtract (1,40.00 ,0.010); Combine (330:336-(302:308+375:381))
State	OK
Peak ID	16
Peak Ref	23
Time	2.4371
TIC	760711936
BPI	290878880
BPM	767.0977
Continuum	FALSE
Saved	FALSE
[MASSES]
{
;Mass	Exp. Mass	Obs. Mass	% BPI	Int. Abs	Adducted Formula
1532.0000	1555.0000	0.0000	0.00	0.00	
1532.0000	1533.0000	1533.8035	72.68	211408576.00	
}
[RESULTS]
{
;Mass	Found	% BPI	% Purity	Confirmed	Status
1532.0000	1	72.68	27.79	1	
}
[MS]
{
;Mass	% BPI
511.79	30.138
548.38	1.212
563.56	6.050
564.52	2.070
614.49	8.368
755.07	1.314
767.10	100.000
785.49	2.110
1533.03	37.582
1533.80	72.679
}
}
[SPECTRUM]
{
ProcDesc	Center (Top,4, Ar); Smooth (Mn, 2x0.75); Subtract (1,40.00 ,0.010); Combine (333:339-(307:313+373:379))
State	OK
Peak ID	17
Peak Ref	10
Time	2.4591
TIC	778106688
BPI	209712560
BPM	767.2906
Continuum	FALSE
Saved	FALSE
[MASSES]
{
;Mass	Exp. Mass	Obs. Mass	% BPI	Int. Abs	Adducted Formula
1532.0000	1555.0000	0.0000	0.00	0.00	
1532.0000	1533.0000	1533.8035	94.18	197502704.00	
}
[RESULTS]
{
;Mass	Found	% BPI	% Purity	Confirmed	Status
1532.0000	0	94.18	25.38	0	
}
[MS]
{
;Mass	% BPI
511.79	54.049
548.19	2.974
614.49	13.410
753.27	1.792
766.90	50.942
767.29	100.000
775.07	2.227
830.44	1.853
1533.03	49.611
1533.80	94.178
}
}
[SPECTRUM]
{
ProcDesc	Center (Top,4, Ar); Smooth (Mn, 2x0.75); Subtract (1,40.00 ,0.010); Combine (361:367-(339:345+379:385))
State	Diversity fail
Peak ID	19
Peak Ref	11
Time	2.6644
TIC	78148184
BPI	19912600
BPM	508.3787
Continuum	FALSE
Saved	FALSE
[MASSES]
{
;Mass	Exp. Mass	Obs. Mass	% BPI	Int. Abs	Adducted Formula
1532.0000	1555.0000	0.0000	0.00	0.00	
1532.0000	1533.0000	0.0000	0.00	0.00	
}
[RESULTS]
{
;Mass	Found	% BPI	% Purity	Confirmed	Status
1532.0000	0	0.00	0.00	0	
}
[MS]
{
;Mass	% BPI
508.38	100.000
509.21	26.399
553.46	14.885
554.36	5.841
591.72	12.073
641.50	8.941
788.58	92.874
1182.17	69.537
1182.56	55.638
1190.40	6.269
}
}
[SPECTRUM]
{
ProcDesc	Center (Top,4, Ar); Smooth (Mn, 2x0.75); Subtract (1,40.00 ,0.010); Combine (365:371-(345:351+392:398))
State	Diversity fail
Peak ID	20
Peak Ref	22
Time	2.6937
TIC	97406376
BPI	71851440
BPM	508.3144
Continuum	FALSE
Saved	FALSE
[MASSES]
{
;Mass	Exp. Mass	Obs. Mass	% BPI	Int. Abs	Adducted Formula
1532.0000	1555.0000	0.0000	0.00	0.00	
1532.0000	1533.0000	0.0000	0.00	0.00	
}
[RESULTS]
{
;Mass	Found	% BPI	% Purity	Confirmed	Status
1532.0000	0	0.00	0.00	0	
}
[MS]
{
;Mass	% BPI
508.31	100.000
515.39	1.022
607.42	0.973
641.57	2.296
788.71	12.324
793.59	1.313
876.36	2.301
1181.27	2.002
1182.17	6.672
1182.75	6.665
}
}
[SPECTRUM]
{
ProcDesc	Center (Top,4, Ar); Smooth (Mn, 2x0.75); Subtract (1,40.00 ,0.010); Combine (376:382-(358:364+403:409))
State	Diversity fail
Peak ID	21
Peak Ref	13
Time	2.7743
TIC	7896184
BPI	4034272
BPM	508.3787
Continuum	FALSE
Saved	FALSE
[MASSES]
{
;Mass	Exp. Mass	Obs. Mass	% BPI	Int. Abs	Adducted Formula
1532.0000	1555.0000	0.0000	0.00	0.00	
1532.0000	1533.0000	0.0000	0.00	0.00	
}
[RESULTS]
{
;Mass	Found	% BPI	% Purity	Confirmed	Status
1532.0000	0	0.00	0.00	0	
}
[MS]
{
;Mass	% BPI
508.38	100.000
563.24	12.944
567.67	9.182
568.19	9.088
590.70	8.298
592.82	8.033
662.21	13.917
689.35	10.021
786.78	10.994
938.49	13.251
}
}
[SPECTRUM]
{
ProcDesc	Center (Top,4, Ar); Smooth (Mn, 2x0.75); Subtract (1,40.00 ,0.010); Combine (393:399-(369:375+433:439))
State	Diversity fail
Peak ID	22
Peak Ref	14
Time	2.8990
TIC	12051600
BPI	4928025
BPM	581.4353
Continuum	FALSE
Saved	FALSE
[MASSES]
{
;Mass	Exp. Mass	Obs. Mass	% BPI	Int. Abs	Adducted Formula
1532.0000	1555.0000	0.0000	0.00	0.00	
1532.0000	1533.0000	0.0000	0.00	0.00	
}
[RESULTS]
{
;Mass	Found	% BPI	% Purity	Confirmed	Status
1532.0000	0	0.00	0.00	0	
}
[MS]
{
;Mass	% BPI
516.80	5.855
556.16	17.183
556.61	21.238
566.64	6.550
581.44	100.000
603.43	28.432
657.19	11.522
848.13	29.656
848.90	18.934
1695.19	5.182
}
}
[CHROMATOGRAM]
{
TraceNumber	1
Description	MS ES+ :TIC
ProcDesc
MaxIntensity	16732041216.00
[TRACE]
{
0.00338	0.030
0.01072	0.079
0.01805	0.020
0.02537	0.041
0.03270	0.027
0.04003	0.053
0.04737	0.023
0.05470	0.077
0.06203	0.018
0.06937	0.014
0.07668	0.037
0.08402	0.046
0.09135	0.043
0.09867	0.018
0.10602	0.050
0.11335	0.033
0.12067	0.053
0.12800	0.049
0.13533	0.028
0.14265	0.046
0.15000	0.068
0.15732	0.066
0.16465	0.008
0.17198	0.036
0.17930	0.035
0.18665	0.024
0.19397	0.048
0.20130	0.036
0.20865	0.033
0.21597	0.040
0.22330	0.029
0.23063	0.019
0.23797	0.064
0.24530	0.013
0.25263	0.020
0.25995	0.030
0.26728	0.097
0.27462	0.002
0.28195	0.044
0.28928	0.055
0.29662	0.076
0.30393	0.007
0.31127	0.055
0.31860	0.029
0.32593	0.024
0.33327	0.012
0.34060	0.036
0.34792	0.019
0.35525	0.034
0.36258	0.013
0.36992	0.039
0.37725	0.020
0.38457	0.012
0.39190	0.059
0.39923	0.033
0.40657	0.029
0.41390	0.043
0.42125	0.069
0.42857	0.015
0.43588	0.021
0.44322	0.040
0.45055	0.079
0.45787	0.067
0.46522	0.045
0.47255	0.068
0.47988	0.035
0.48720	0.031
0.49455	0.038
0.50185	0.026
0.50920	0.039
0.51653	0.030
0.52385	1.771
0.53118	0.608
0.53852	0.169
0.54585	0.172
0.55317	0.099
0.56050	0.066
0.56785	0.090
0.57518	0.080
0.58250	0.090
0.58983	0.056
0.59717	0.057
0.60450	0.063
0.61182	0.063
0.61917	0.077
0.62648	0.108
0.63380	0.129
0.64115	0.140
0.64847	0.099
0.65580	0.128
0.66315	0.200
0.67045	0.221
0.67780	0.157
0.68513	0.299
0.69247	0.180
0.69980	0.271
0.70713	0.262
0.71445	0.139
0.72177	0.287
0.72912	0.175
0.73643	0.213
0.74375	0.259
0.75110	0.177
0.75843	0.131
0.76575	0.125
0.77308	0.115
0.78042	0.065
0.78777	0.126
0.79508	0.057
0.80240	0.076
0.80973	0.056
0.81707	0.031
0.82442	0.204
0.83173	0.082
0.83907	0.110
0.84638	0.064
0.85372	0.066
0.86105	0.058
0.86838	0.075
0.87570	0.082
0.88305	0.050
0.89038	0.083
0.89772	0.098
0.90503	0.100
0.91238	0.059
0.91970	0.097
0.92703	0.207
0.93437	0.133
0.94168	0.127
0.94903	0.138
0.95637	0.238
0.96368	0.072
0.97102	0.087
0.97835	0.174
0.98568	0.230
0.99300	0.154
1.00033	0.163
1.00767	0.089
1.01500	0.160
1.02233	0.155
1.02967	0.217
1.03698	0.149
1.04432	0.181
1.05165	0.241
1.05898	0.318
1.06632	0.188
1.07363	0.221
1.08098	0.280
1.08830	0.317
1.09563	0.269
1.10295	0.419
1.11030	0.218
1.11763	0.280
1.12495	0.393
1.13228	0.316
1.13962	0.300
1.14695	0.401
1.15428	0.374
1.16160	0.329
1.16895	0.453
1.17627	0.354
1.18360	0.526
1.19093	0.658
1.19827	0.644
1.20558	0.806
1.21292	0.525
1.22023	0.798
1.22758	0.539
1.23492	0.530
1.24223	0.655
1.24957	0.466
1.25690	0.390
1.26423	0.511
1.27157	0.417
1.27890	0.500
1.28625	0.442
1.29355	0.478
1.30088	0.553
1.30823	0.530
1.31555	0.390
1.32288	0.523
1.33022	0.504
1.33755	0.676
1.34490	0.821
1.35220	0.763
1.35953	0.521
1.36687	0.641
1.37420	0.651
1.38153	0.905
1.38887	0.756
1.39618	0.644
1.40352	0.665
1.41085	1.331
1.41818	0.954
1.42550	0.974
1.43283	0.850
1.44017	0.729
1.44750	0.759
1.45483	0.898
1.46217	1.040
1.46950	0.744
1.47683	0.748
1.48415	1.175
1.49150	0.992
1.49882	1.052
1.50613	1.198
1.51347	2.626
1.52082	2.188
1.52813	1.861
1.53548	1.842
1.54280	2.042
1.55013	2.692
1.55745	3.462
1.56478	2.849
1.57213	2.750
1.57945	2.798
1.58677	2.715
1.59410	2.413
1.60143	2.764
1.60877	2.934
1.61610	2.894
1.62343	3.057
1.63077	3.555
1.63808	3.442
1.64542	4.592
1.65275	4.238
1.66008	4.432
1.66742	6.608
1.67473	8.843
1.68207	10.131
1.68942	9.531
1.69673	9.035
1.70407	10.999
1.71140	21.099
1.71872	28.904
1.72605	26.797
1.73338	30.324
1.74072	38.973
1.74805	36.725
1.75538	32.289
1.76270	33.251
1.77003	33.832
1.77738	37.372
1.78470	40.048
1.79203	43.509
1.79937	68.084
1.80670	88.342
1.81403	86.669
1.82135	71.859
1.82868	55.932
1.83602	45.665
1.84333	38.463
1.85068	35.064
1.85802	32.030
1.86535	31.987
1.87268	33.480
1.88000	33.636
1.88732	33.308
1.89467	31.220
1.90198	31.840
1.90932	32.794
1.91665	34.807
1.92398	34.101
1.93130	39.210
1.93863	34.743
1.94597	29.162
1.95330	26.101
1.96063	24.617
1.96797	24.072
1.97528	22.644
1.98262	24.993
1.98995	22.372
1.99728	20.477
2.00462	20.721
2.01193	22.026
2.01927	22.017
2.02660	22.569
2.03393	27.106
2.04127	42.011
2.04860	51.825
2.05593	52.772
2.06327	53.536
2.07060	51.913
2.07792	54.864
2.08525	56.839
2.09260	54.523
2.09992	55.406
2.10725	57.036
2.11458	56.067
2.12190	48.497
2.12923	41.167
2.13657	35.405
2.14388	32.377
2.15123	29.089
2.15855	32.609
2.16588	47.632
2.17322	47.928
2.18055	49.586
2.18788	46.683
2.19523	42.445
2.20255	34.824
2.20988	30.829
2.21722	26.786
2.22453	25.387
2.23185	26.047
2.23920	26.349
2.24652	26.633
2.25385	25.178
2.26118	26.266
2.26852	26.795
2.27583	25.670
2.28318	27.671
2.29050	26.886
2.29783	26.108
2.30515	27.751
2.31250	28.297
2.31982	27.391
2.32717	29.749
2.33448	38.342
2.34182	52.567
2.34915	74.957
2.35650	89.504
2.36382	90.510
2.37115	78.537
2.37848	65.042
2.38582	55.571
2.39313	54.367
2.40047	58.310
2.40782	62.606
2.41512	73.336
2.42247	87.886
2.42978	94.864
2.43712	99.166
2.44445	96.110
2.45180	97.739
2.45912	100.000
2.46645	98.489
2.47378	95.086
2.48110	90.913
2.48843	80.430
2.49577	74.381
2.50308	64.313
2.51042	58.807
2.51775	56.744
2.52508	52.905
2.53242	50.142
2.53973	45.861
2.54707	44.648
2.55440	40.326
2.56175	41.210
2.56907	39.439
2.57640	38.815
2.58373	38.030
2.59107	34.920
2.59840	36.421
2.60573	34.644
2.61307	31.711
2.62037	29.605
2.62772	27.745
2.63505	28.020
2.64238	30.270
2.64970	33.476
2.65703	34.864
2.66437	34.928
2.67170	32.993
2.67903	34.262
2.68635	38.472
2.69368	38.730
2.70102	33.817
2.70835	27.634
2.71568	23.903
2.72302	22.430
2.73033	19.565
2.73767	19.625
2.74500	18.222
2.75233	18.080
2.75967	16.368
2.76700	16.134
2.77432	16.681
2.78167	16.243
2.78898	15.119
2.79632	15.369
2.80363	14.844
2.81097	14.234
2.81832	14.505
2.82565	13.548
2.83295	12.820
2.84030	12.380
2.84762	12.329
2.85495	12.448
2.86228	12.674
2.86962	12.397
2.87695	12.998
2.88428	13.328
2.89160	13.510
2.89895	13.737
2.90628	12.488
2.91360	12.110
2.92095	11.140
2.92825	11.454
2.93558	10.315
2.94292	9.939
2.95025	8.212
2.95758	7.461
2.96493	6.403
2.97223	5.676
2.97957	5.484
2.98693	4.466
2.99423	4.239
3.00157	4.731
3.00892	3.447
3.01622	3.231
3.02355	3.314
3.03088	2.982
3.03822	2.612
3.04555	2.790
3.05288	2.678
3.06020	2.307
3.06753	2.172
3.07487	2.266
3.08222	2.246
3.08953	1.799
3.09687	1.866
3.10418	1.585
3.11152	1.602
3.11885	1.580
3.12618	1.580
3.13352	1.411
3.14085	1.181
3.14817	1.121
3.15550	1.029
3.16282	1.313
3.17017	0.843
3.17748	1.074
3.18483	0.985
3.19217	0.794
3.19948	0.669
3.20683	0.444
3.21415	0.590
3.22148	0.812
3.22880	0.530
3.23613	0.550
3.24348	0.755
3.25080	0.582
3.25815	0.617
3.26547	0.533
3.27280	0.514
3.28013	0.535
3.28745	0.831
3.29478	0.581
3.30212	0.764
3.30945	0.477
3.31677	0.370
3.32410	0.456
3.33143	0.488
3.33877	0.314
3.34610	0.454
3.35343	0.463
3.36077	0.421
3.36808	0.380
3.37542	0.473
3.38275	0.573
3.39010	0.321
3.39742	0.388
3.40475	0.376
3.41208	0.473
3.41940	0.307
3.42675	0.335
3.43408	0.563
3.44142	0.355
3.44872	0.444
3.45607	0.315
3.46340	0.481
3.47072	0.387
3.47805	0.428
3.48538	0.255
3.49270	0.365
3.50003	0.382
}
[PEAK]
{
Peak ID	3
Peak Ref	1
Time	1.7407
Peak	1.6967	1.7627
Intensity	1511751808.00	1456490624.00
Height	5046018048.00
AreaAbs	205320704.0000
Area %BP	9.15
Area %Total	2.99
Width	0.07
Response Test	0
}
[PEAK]
{
Peak ID	4
Peak Ref	2
Time	1.8067
Peak	1.7627	1.8654
Intensity	1456490624.00	1370499328.00
Height	13361855488.00
AreaAbs	725212544.0000
Area %BP	32.31
Area %Total	10.57
Width	0.10
Response Test	0
}
[PEAK]
{
Peak ID	6
Peak Ref	3
Time	1.8800
Peak	1.8654	1.8947
Intensity	1370499328.00	1345940352.00
Height	4269789696.00
AreaAbs	122085384.0000
Area %BP	5.44
Area %Total	1.78
Width	0.03
Response Test	0
}
[PEAK]
{
Peak ID	7
Peak Ref	4
Time	1.9313
Peak	1.8947	1.9753
Intensity	1345940352.00	1278406528.00
Height	5245394944.00
AreaAbs	309159296.0000
Area %BP	13.77
Area %Total	4.51
Width	0.08
Response Test	0
}
[PEAK]
{
Peak ID	8
Peak Ref	5
Time	1.9826
Peak	1.9753	2.0046
Intensity	1278406528.00	1253833600.00
Height	2909578496.00
AreaAbs	72708824.0000
Area %BP	3.24
Area %Total	1.06
Width	0.03
Response Test	0
}
[PEAK]
{
Peak ID	11
Peak Ref	6
Time	2.1072
Peak	2.0046	2.1512
Intensity	1253833600.00	1131010816.00
Height	8375391232.00
AreaAbs	883555968.0000
Area %BP	39.36
Area %Total	12.88
Width	0.15
Response Test	0
}
[PEAK]
{
Peak ID	12
Peak Ref	7
Time	2.1806
Peak	2.1512	2.2538
Intensity	1131010816.00	1045047424.00
Height	7190340096.00
AreaAbs	490443008.0000
Area %BP	21.85
Area %Total	7.15
Width	0.10
Response Test	0
}
[PEAK]
{
Peak ID	13
Peak Ref	8
Time	2.2832
Peak	2.2538	2.2978
Intensity	1045047424.00	1008201920.00
Height	3609527296.00
AreaAbs	149782176.0000
Area %BP	6.67
Area %Total	2.18
Width	0.04
Response Test	0
}
[PEAK]
{
Peak ID	15
Peak Ref	9
Time	2.3638
Peak	2.2978	2.3931
Intensity	1008201920.00	928367808.00
Height	14191266816.00
AreaAbs	764475008.0000
Area %BP	34.06
Area %Total	11.15
Width	0.10
Response Test	0
}
[PEAK]
{
Peak ID	17
Peak Ref	10
Time	2.4591
Peak	2.3931	2.6277
Intensity	928367808.00	731854016.00
Height	15858949120.00
AreaAbs	2244776448.0000
Area %BP	100.00
Area %Total	32.73
Width	0.23
Response Test	0
}
[PEAK]
{
Peak ID	19
Peak Ref	11
Time	2.6644
Peak	2.6277	2.6717
Intensity	731854016.00	695008704.00
Height	5143055360.00
AreaAbs	204028544.0000
Area %BP	9.09
Area %Total	2.97
Width	0.04
Response Test	0
}
[PEAK]
{
Peak ID	20
Peak Ref	12
Time	2.6937
Peak	2.6717	2.7670
Intensity	695008704.00	615174592.00
Height	5803793408.00
AreaAbs	349282560.0000
Area %BP	15.56
Area %Total	5.09
Width	0.10
Response Test	0
}
[PEAK]
{
Peak ID	21
Peak Ref	13
Time	2.7743
Peak	2.7670	2.8476
Intensity	615174592.00	547640832.00
Height	2182051072.00
AreaAbs	149303552.0000
Area %BP	6.65
Area %Total	2.18
Width	0.08
Response Test	0
}
[PEAK]
{
Peak ID	22
Peak Ref	14
Time	2.8990
Peak	2.8476	3.0675
Intensity	547640832.00	363413664.00
Height	1793901952.00
AreaAbs	189089072.0000
Area %BP	8.42
Area %Total	2.76
Width	0.22
Response Test	0
}
}
[CHROMATOGRAM]
{
TraceNumber	2
Description	MS ES+ :BPI
ProcDesc
MaxIntensity	134217728.00
[TRACE]
{
0.00338	0.757
0.01072	1.064
0.01805	0.505
0.02537	0.677
0.03270	0.893
0.04003	0.929
0.04737	0.737
0.05470	1.190
0.06203	0.749
0.06937	0.688
0.07668	1.065
0.08402	1.204
0.09135	0.815
0.09867	0.629
0.10602	0.563
0.11335	0.554
0.12067	0.671
0.12800	0.688
0.13533	0.909
0.14265	1.096
0.15000	1.335
0.15732	1.031
0.16465	0.345
0.17198	0.749
0.17930	0.757
0.18665	0.499
0.19397	0.632
0.20130	0.864
0.20865	0.639
0.21597	0.658
0.22330	0.694
0.23063	0.871
0.23797	1.225
0.24530	0.427
0.25263	0.670
0.25995	0.912
0.26728	1.083
0.27462	0.137
0.28195	0.783
0.28928	0.844
0.29662	0.848
0.30393	0.356
0.31127	0.914
0.31860	0.793
0.32593	0.800
0.33327	0.346
0.34060	0.867
0.34792	0.624
0.35525	0.734
0.36258	0.426
0.36992	0.705
0.37725	0.739
0.38457	0.415
0.39190	1.219
0.39923	0.836
0.40657	0.739
0.41390	0.981
0.42125	0.958
0.42857	0.499
0.43588	0.659
0.44322	0.667
0.45055	1.064
0.45787	0.925
0.46522	0.650
0.47255	1.137
0.47988	0.706
0.48720	0.507
0.49455	0.728
0.50185	0.464
0.50920	0.841
0.51653	0.800
0.52385	4.123
0.53118	3.539
0.53852	2.126
0.54585	1.553
0.55317	0.661
0.56050	1.369
0.56785	0.972
0.57518	1.004
0.58250	0.912
0.58983	0.542
0.59717	0.816
0.60450	1.195
0.61182	0.958
0.61917	1.143
0.62648	0.702
0.63380	0.919
0.64115	0.734
0.64847	1.346
0.65580	0.989
0.66315	1.727
0.67045	1.244
0.67780	1.588
0.68513	1.538
0.69247	1.637
0.69980	1.093
0.70713	1.642
0.71445	1.053
0.72177	1.549
0.72912	1.463
0.73643	1.495
0.74375	1.335
0.75110	1.787
0.75843	1.123
0.76575	1.448
0.77308	1.071
0.78042	1.341
0.78777	1.503
0.79508	0.967
0.80240	0.923
0.80973	0.891
0.81707	0.635
0.82442	2.739
0.83173	1.118
0.83907	1.178
0.84638	0.832
0.85372	0.725
0.86105	1.086
0.86838	1.570
0.87570	1.906
0.88305	0.919
0.89038	0.923
0.89772	1.762
0.90503	1.555
0.91238	1.387
0.91970	0.969
0.92703	1.813
0.93437	1.906
0.94168	1.984
0.94903	1.532
0.95637	1.892
0.96368	1.379
0.97102	1.785
0.97835	2.335
0.98568	1.698
0.99300	2.721
1.00033	1.549
1.00767	1.031
1.01500	1.709
1.02233	2.264
1.02967	2.386
1.03698	1.607
1.04432	2.234
1.05165	2.515
1.05898	4.445
1.06632	1.263
1.07363	1.758
1.08098	2.882
1.08830	3.137
1.09563	2.489
1.10295	2.731
1.11030	2.072
1.11763	2.209
1.12495	2.060
1.13228	2.531
1.13962	1.988
1.14695	2.254
1.15428	2.672
1.16160	2.426
1.16895	2.455
1.17627	2.917
1.18360	2.148
1.19093	3.018
1.19827	2.577
1.20558	2.623
1.21292	2.472
1.22023	2.638
1.22758	2.435
1.23492	2.739
1.24223	2.504
1.24957	1.642
1.25690	1.608
1.26423	1.695
1.27157	2.896
1.27890	1.878
1.28625	1.886
1.29355	1.839
1.30088	1.434
1.30823	1.717
1.31555	1.530
1.32288	1.974
1.33022	1.611
1.33755	2.226
1.34490	2.791
1.35220	2.502
1.35953	1.947
1.36687	2.303
1.37420	2.393
1.38153	3.169
1.38887	2.255
1.39618	2.400
1.40352	2.026
1.41085	14.619
1.41818	4.332
1.42550	2.617
1.43283	1.697
1.44017	4.997
1.44750	2.348
1.45483	2.298
1.46217	2.751
1.46950	1.765
1.47683	2.995
1.48415	2.670
1.49150	4.527
1.49882	2.751
1.50613	5.107
1.51347	3.754
1.52082	2.597
1.52813	2.469
1.53548	2.301
1.54280	2.618
1.55013	3.799
1.55745	2.879
1.56478	4.564
1.57213	2.882
1.57945	4.231
1.58677	3.006
1.59410	2.599
1.60143	3.229
1.60877	3.438
1.61610	3.963
1.62343	2.786
1.63077	3.290
1.63808	3.200
1.64542	5.336
1.65275	3.438
1.66008	4.759
1.66742	7.936
1.67473	12.869
1.68207	11.586
1.68942	7.295
1.69673	7.672
1.70407	13.446
1.71140	54.630
1.71872	62.051
1.72605	31.128
1.73338	45.474
1.74072	68.823
1.74805	45.276
1.75538	15.398
1.76270	26.440
1.77003	35.040
1.77738	83.102
1.78470	88.510
1.79203	56.158
1.79937	58.551
1.80670	100.000
1.81403	100.000
1.82135	81.598
1.82868	50.296
1.83602	33.069
1.84333	29.257
1.85068	14.178
1.85802	13.914
1.86535	16.351
1.87268	10.567
1.88000	11.829
1.88732	16.002
1.89467	14.873
1.90198	10.127
1.90932	9.428
1.91665	8.647
1.92398	28.033
1.93130	54.526
1.93863	40.079
1.94597	17.624
1.95330	12.613
1.96063	9.993
1.96797	9.189
1.97528	11.606
1.98262	15.167
1.98995	12.498
1.99728	8.681
2.00462	6.367
2.01193	6.702
2.01927	8.424
2.02660	12.947
2.03393	35.980
2.04127	98.764
2.04860	100.000
2.05593	100.000
2.06327	89.105
2.07060	54.196
2.07792	64.734
2.08525	65.201
2.09260	58.890
2.09992	79.172
2.10725	77.386
2.11458	80.994
2.12190	67.331
2.12923	40.997
2.13657	24.774
2.14388	17.242
2.15123	15.176
2.15855	18.471
2.16588	59.430
2.17322	80.121
2.18055	77.225
2.18788	65.894
2.19523	58.908
2.20255	43.863
2.20988	28.879
2.21722	22.353
2.22453	15.704
2.23185	15.585
2.23920	22.990
2.24652	14.771
2.25385	9.798
2.26118	8.002
2.26852	7.182
2.27583	9.589
2.28318	15.923
2.29050	9.297
2.29783	8.115
2.30515	8.249
2.31250	7.870
2.31982	6.639
2.32717	6.673
2.33448	17.427
2.34182	52.386
2.34915	100.000
2.35650	100.000
2.36382	100.000
2.37115	100.000
2.37848	76.962
2.38582	42.007
2.39313	48.978
2.40047	98.080
2.40782	100.000
2.41512	62.476
2.42247	100.000
2.42978	100.000
2.43712	100.000
2.44445	100.000
2.45180	100.000
2.45912	100.000
2.46645	100.000
2.47378	100.000
2.48110	100.000
2.48843	100.000
2.49577	95.813
2.50308	89.679
2.51042	65.988
2.51775	61.597
2.52508	57.135
2.53242	42.719
2.53973	29.596
2.54707	43.970
2.55440	29.388
2.56175	25.458
2.56907	26.895
2.57640	23.071
2.58373	21.379
2.59107	19.250
2.59840	23.587
2.60573	21.500
2.61307	16.020
2.62037	12.964
2.62772	13.402
2.63505	14.450
2.64238	14.793
2.64970	20.288
2.65703	20.123
2.66437	20.271
2.67170	17.081
2.67903	32.028
2.68635	64.499
2.69368	79.031
2.70102	63.226
2.70835	41.663
2.71568	23.709
2.72302	19.431
2.73033	15.689
2.73767	15.741
2.74500	13.565
2.75233	10.092
2.75967	6.227
2.76700	5.267
2.77432	5.659
2.78167	5.600
2.78898	7.640
2.79632	7.991
2.80363	5.661
2.81097	5.983
2.81832	5.290
2.82565	4.587
2.83295	3.670
2.84030	4.044
2.84762	4.280
2.85495	4.477
2.86228	3.864
2.86962	3.697
2.87695	4.700
2.88428	5.170
2.89160	5.943
2.89895	5.551
2.90628	5.371
2.91360	4.425
2.92095	3.543
2.92825	5.653
2.93558	4.440
2.94292	4.355
2.95025	3.979
2.95758	3.395
2.96493	3.745
2.97223	3.685
2.97957	4.155
2.98693	3.192
2.99423	3.915
3.00157	3.654
3.00892	3.519
3.01622	3.215
3.02355	4.240
3.03088	3.429
3.03822	3.185
3.04555	2.994
3.05288	2.870
3.06020	4.771
3.06753	3.078
3.07487	3.355
3.08222	4.832
3.08953	4.622
3.09687	2.841
3.10418	2.721
3.11152	6.837
3.11885	3.748
3.12618	3.418
3.13352	3.696
3.14085	2.444
3.14817	2.260
3.15550	3.302
3.16282	4.420
3.17017	2.766
3.17748	3.752
3.18483	3.523
3.19217	9.708
3.19948	4.366
3.20683	1.749
3.21415	2.055
3.22148	2.434
3.22880	1.646
3.23613	1.978
3.24348	2.132
3.25080	2.757
3.25815	3.056
3.26547	2.310
3.27280	1.973
3.28013	2.486
3.28745	3.815
3.29478	2.762
3.30212	3.511
3.30945	2.612
3.31677	2.861
3.32410	1.636
3.33143	3.127
3.33877	1.741
3.34610	1.781
3.35343	2.191
3.36077	2.434
3.36808	2.533
3.37542	2.895
3.38275	2.698
3.39010	2.162
3.39742	3.426
3.40475	2.971
3.41208	2.718
3.41940	2.124
3.42675	2.072
3.43408	2.008
3.44142	3.755
3.44872	3.960
3.45607	2.780
3.46340	2.428
3.47072	2.046
3.47805	3.934
3.48538	2.765
3.49270	2.112
3.50003	2.432
}
[PEAK]
{
Peak ID	4
Peak Ref	15
Time	1.8067
Peak	1.7920	1.8507
Intensity	75374592.00	19030016.00
Height	72933272.00
AreaAbs	2031952.6250
Area %BP	15.98
Area %Total	5.51
Width	0.06
Response Test	0
}
[PEAK]
{
Peak ID	9
Peak Ref	16
Time	2.0486
Peak	2.0046	2.0779
Intensity	8546304.00	12723219.00
Height	123165088.00
AreaAbs	4550447.0000
Area %BP	35.79
Area %Total	12.34
Width	0.07
Response Test	0
}
[PEAK]
{
Peak ID	11
Peak Ref	17
Time	2.1146
Peak	2.0779	2.1512
Intensity	12723219.00	16901100.00
Height	93895216.00
AreaAbs	4344669.5000
Area %BP	34.17
Area %Total	11.78
Width	0.07
Response Test	0
}
[PEAK]
{
Peak ID	12
Peak Ref	18
Time	2.1732
Peak	2.1512	2.2245
Intensity	16901100.00	21078016.00
Height	89382592.00
AreaAbs	3239285.5000
Area %BP	25.48
Area %Total	8.78
Width	0.07
Response Test	0
}
[PEAK]
{
Peak ID	14
Peak Ref	19
Time	2.3491
Peak	2.3272	2.3858
Intensity	8955897.00	12707734.00
Height	123855560.00
AreaAbs	4985722.0000
Area %BP	39.21
Area %Total	13.52
Width	0.06
Response Test	0
}
[PEAK]
{
Peak ID	16
Peak Ref	20
Time	2.4078
Peak	2.3858	2.4151
Intensity	12707734.00	14582051.00
Height	120102640.00
AreaAbs	2543654.0000
Area %BP	20.01
Area %Total	6.90
Width	0.03
Response Test	0
}
[PEAK]
{
Peak ID	16
Peak Ref	21
Time	2.4225
Peak	2.4151	2.5911
Intensity	14582051.00	25837560.00
Height	119165480.00
AreaAbs	12713871.0000
Area %BP	100.00
Area %Total	34.48
Width	0.18
Response Test	0
}
[PEAK]
{
Peak ID	20
Peak Ref	22
Time	2.6937
Peak	2.6717	2.7670
Intensity	22925312.00	7069696.00
Height	86806320.00
AreaAbs	2467686.5000
Area %BP	19.41
Area %Total	6.69
Width	0.10
Response Test	0
}
}
[CHROMATOGRAM]
{
TraceNumber	3
Description	MS ES+ :1555+1533 1.5000Da
TargetMass	1532.0000
ProcDesc
MaxIntensity	2448703488.00
[TRACE]
{
0.00338	0.000
0.01072	0.000
0.01805	0.000
0.02537	0.000
0.03270	0.000
0.04003	0.000
0.04737	0.000
0.05470	0.000
0.06203	0.000
0.06937	0.000
0.07668	0.000
0.08402	0.000
0.09135	0.000
0.09867	0.000
0.10602	0.000
0.11335	0.000
0.12067	0.000
0.12800	0.000
0.13533	0.000
0.14265	0.000
0.15000	0.000
0.15732	0.000
0.16465	0.000
0.17198	0.000
0.17930	0.000
0.18665	0.000
0.19397	0.000
0.20130	0.000
0.20865	0.000
0.21597	0.000
0.22330	0.000
0.23063	0.000
0.23797	0.000
0.24530	0.000
0.25263	0.000
0.25995	0.000
0.26728	0.000
0.27462	0.000
0.28195	0.000
0.28928	0.000
0.29662	0.000
0.30393	0.000
0.31127	0.000
0.31860	0.000
0.32593	0.000
0.33327	0.000
0.34060	0.000
0.34792	0.000
0.35525	0.000
0.36258	0.000
0.36992	0.000
0.37725	0.000
0.38457	0.000
0.39190	0.000
0.39923	0.000
0.40657	0.000
0.41390	0.000
0.42125	0.000
0.42857	0.000
0.43588	0.000
0.44322	0.000
0.45055	0.000
0.45787	0.000
0.46522	0.000
0.47255	0.000
0.47988	0.000
0.48720	0.000
0.49455	0.000
0.50185	0.000
0.50920	0.000
0.51653	0.000
0.52385	0.000
0.53118	0.000
0.53852	0.000
0.54585	0.000
0.55317	0.000
0.56050	0.000
0.56785	0.000
0.57518	0.000
0.58250	0.000
0.58983	0.000
0.59717	0.000
0.60450	0.000
0.61182	0.000
0.61917	0.000
0.62648	0.000
0.63380	0.000
0.64115	0.000
0.64847	0.000
0.65580	0.000
0.66315	0.000
0.67045	0.000
0.67780	0.000
0.68513	0.000
0.69247	0.000
0.69980	0.000
0.70713	0.000
0.71445	0.000
0.72177	0.000
0.72912	0.000
0.73643	0.000
0.74375	0.000
0.75110	0.000
0.75843	0.000
0.76575	0.000
0.77308	0.000
0.78042	0.000
0.78777	0.000
0.79508	0.000
0.80240	0.000
0.80973	0.000
0.81707	0.000
0.82442	0.000
0.83173	0.000
0.83907	0.000
0.84638	0.000
0.85372	0.000
0.86105	0.000
0.86838	0.000
0.87570	0.000
0.88305	0.000
0.89038	0.000
0.89772	0.000
0.90503	0.000
0.91238	0.000
0.91970	0.000
0.92703	0.000
0.93437	0.000
0.94168	0.000
0.94903	0.000
0.95637	0.113
0.96368	0.000
0.97102	0.000
0.97835	0.000
0.98568	0.000
0.99300	0.000
1.00033	0.000
1.00767	0.000
1.01500	0.000
1.02233	0.000
1.02967	0.000
1.03698	0.000
1.04432	0.000
1.05165	0.000
1.05898	0.000
1.06632	0.000
1.07363	0.000
1.08098	0.000
1.08830	0.182
1.09563	0.001
1.10295	0.000
1.11030	0.000
1.11763	0.000
1.12495	0.000
1.13228	0.000
1.13962	0.000
1.14695	0.000
1.15428	0.000
1.16160	0.000
1.16895	0.000
1.17627	0.000
1.18360	0.000
1.19093	0.000
1.19827	0.000
1.20558	0.000
1.21292	0.000
1.22023	0.000
1.22758	0.000
1.23492	0.000
1.24223	0.000
1.24957	0.000
1.25690	0.000
1.26423	0.000
1.27157	0.000
1.27890	0.000
1.28625	0.074
1.29355	0.000
1.30088	0.000
1.30823	0.087
1.31555	0.000
1.32288	0.000
1.33022	0.000
1.33755	0.000
1.34490	0.000
1.35220	0.000
1.35953	0.000
1.36687	0.000
1.37420	0.000
1.38153	0.000
1.38887	0.143
1.39618	0.000
1.40352	0.000
1.41085	0.000
1.41818	0.000
1.42550	0.010
1.43283	0.000
1.44017	0.000
1.44750	0.000
1.45483	0.000
1.46217	0.000
1.46950	0.033
1.47683	0.000
1.48415	0.000
1.49150	0.000
1.49882	0.055
1.50613	0.000
1.51347	0.000
1.52082	0.000
1.52813	0.000
1.53548	0.000
1.54280	0.000
1.55013	0.000
1.55745	0.000
1.56478	0.000
1.57213	0.000
1.57945	0.000
1.58677	0.000
1.59410	0.000
1.60143	0.000
1.60877	0.001
1.61610	0.010
1.62343	0.000
1.63077	0.000
1.63808	0.000
1.64542	0.001
1.65275	0.034
1.66008	0.021
1.66742	0.000
1.67473	0.000
1.68207	0.000
1.68942	0.000
1.69673	0.033
1.70407	0.000
1.71140	0.001
1.71872	0.003
1.72605	0.109
1.73338	0.028
1.74072	0.144
1.74805	0.132
1.75538	0.223
1.76270	0.065
1.77003	0.079
1.77738	0.086
1.78470	0.040
1.79203	0.052
1.79937	0.097
1.80670	0.061
1.81403	0.079
1.82135	0.294
1.82868	0.179
1.83602	0.064
1.84333	0.040
1.85068	0.020
1.85802	0.082
1.86535	0.079
1.87268	0.044
1.88000	0.101
1.88732	0.107
1.89467	0.058
1.90198	0.044
1.90932	0.134
1.91665	0.014
1.92398	0.189
1.93130	0.254
1.93863	0.103
1.94597	0.099
1.95330	0.107
1.96063	0.032
1.96797	0.007
1.97528	0.006
1.98262	0.006
1.98995	0.014
1.99728	0.222
2.00462	0.023
2.01193	0.043
2.01927	0.223
2.02660	0.049
2.03393	0.077
2.04127	0.135
2.04860	0.085
2.05593	0.188
2.06327	0.066
2.07060	0.029
2.07792	0.217
2.08525	0.410
2.09260	0.607
2.09992	0.779
2.10725	1.344
2.11458	1.042
2.12190	0.648
2.12923	1.018
2.13657	0.150
2.14388	0.411
2.15123	0.288
2.15855	0.149
2.16588	0.292
2.17322	0.148
2.18055	0.230
2.18788	0.178
2.19523	0.431
2.20255	0.315
2.20988	0.264
2.21722	0.054
2.22453	0.168
2.23185	0.210
2.23920	0.145
2.24652	0.151
2.25385	0.152
2.26118	0.253
2.26852	0.192
2.27583	0.294
2.28318	0.067
2.29050	0.309
2.29783	0.624
2.30515	0.760
2.31250	1.221
2.31982	0.831
2.32717	0.534
2.33448	0.628
2.34182	0.298
2.34915	0.422
2.35650	0.307
2.36382	0.498
2.37115	0.659
2.37848	1.788
2.38582	4.543
2.39313	9.158
2.40047	18.150
2.40782	33.096
2.41512	57.061
2.42247	79.699
2.42978	93.622
2.43712	100.000
2.44445	91.284
2.45180	92.602
2.45912	84.848
2.46645	75.143
2.47378	68.379
2.48110	57.776
2.48843	47.818
2.49577	40.680
2.50308	30.763
2.51042	22.005
2.51775	19.344
2.52508	17.823
2.53242	13.130
2.53973	13.873
2.54707	11.162
2.55440	9.157
2.56175	9.797
2.56907	8.359
2.57640	7.490
2.58373	7.001
2.59107	5.174
2.59840	5.176
2.60573	4.571
2.61307	4.143
2.62037	4.011
2.62772	3.780
2.63505	3.159
2.64238	3.043
2.64970	3.087
2.65703	4.026
2.66437	3.617
2.67170	2.938
2.67903	3.555
2.68635	2.241
2.69368	1.731
2.70102	1.815
2.70835	1.388
2.71568	1.238
2.72302	1.290
2.73033	0.861
2.73767	0.753
2.74500	0.799
2.75233	0.775
2.75967	0.454
2.76700	0.771
2.77432	1.043
2.78167	0.912
2.78898	0.506
2.79632	0.630
2.80363	0.611
2.81097	0.496
2.81832	0.476
2.82565	0.506
2.83295	0.302
2.84030	0.370
2.84762	0.322
2.85495	0.177
2.86228	0.377
2.86962	0.358
2.87695	0.302
2.88428	0.404
2.89160	0.230
2.89895	0.310
2.90628	0.207
2.91360	0.314
2.92095	0.421
2.92825	0.295
2.93558	0.158
2.94292	0.181
2.95025	0.129
2.95758	0.101
2.96493	0.484
2.97223	0.306
2.97957	0.079
2.98693	0.131
2.99423	0.053
3.00157	0.038
3.00892	0.001
3.01622	0.000
3.02355	0.002
3.03088	0.000
3.03822	0.000
3.04555	0.000
3.05288	0.029
3.06020	0.000
3.06753	0.107
3.07487	0.000
3.08222	0.000
3.08953	0.000
3.09687	0.080
3.10418	0.000
3.11152	0.000
3.11885	0.000
3.12618	0.000
3.13352	0.000
3.14085	0.155
3.14817	0.000
3.15550	0.028
3.16282	0.000
3.17017	0.000
3.17748	0.000
3.18483	0.000
3.19217	0.000
3.19948	0.000
3.20683	0.064
3.21415	0.098
3.22148	0.000
3.22880	0.000
3.23613	0.000
3.24348	0.000
3.25080	0.000
3.25815	0.000
3.26547	0.000
3.27280	0.000
3.28013	0.000
3.28745	0.095
3.29478	0.000
3.30212	0.000
3.30945	0.000
3.31677	0.000
3.32410	0.000
3.33143	0.000
3.33877	0.000
3.34610	0.000
3.35343	0.000
3.36077	0.002
3.36808	0.000
3.37542	0.000
3.38275	0.067
3.39010	0.000
3.39742	0.000
3.40475	0.000
3.41208	0.000
3.41940	0.000
3.42675	0.000
3.43408	0.000
3.44142	0.000
3.44872	0.000
3.45607	0.000
3.46340	0.000
3.47072	0.000
3.47805	0.000
3.48538	0.000
3.49270	0.000
3.50003	0.000
}
[PEAK]
{
Peak ID	16
Peak Ref	23
Time	2.4371
Peak	2.3565	2.6424
Intensity	7505920.00	74504192.00
Height	2422304512.00
AreaAbs	196209328.0000
Area %BP	100.00
Area %Total	100.00
Width	0.29
Response Test	1
}
}
}
[FUNCTION]
{
Function	2
IonMode	ES- 
Type	MS 
Description	(500:3072) 
[SPECTRUM]
{
ProcDesc	Center (Top,4, Ar); Smooth (Mn, 2x0.75); Subtract (1,40.00 ,0.010); Combine (41:47-(21:28+70:77))
State	Diversity fail
Peak ID	1
Peak Ref	36
Time	0.3233
TIC	1439
BPI	342
BPM	2273.2244
Continuum	FALSE
Saved	FALSE
[MASSES]
{
;Mass	Exp. Mass	Obs. Mass	% BPI	Int. Abs	Adducted Formula
1532.0000	1531.0000	0.0000	0.00	0.00	
}
[RESULTS]
{
;Mass	Found	% BPI	% Purity	Confirmed	Status
1532.0000	0	0.00	0.00	0	
}
[MS]
{
;Mass	% BPI
719.25	61.341
861.83	35.165
1308.42	25.064
1496.11	31.319
1628.75	37.574
2089.19	25.048
2273.22	100.000
2309.95	36.046
2398.46	31.300
2717.55	37.572
}
}
[SPECTRUM]
{
ProcDesc	Center (Top,4, Ar); Smooth (Mn, 2x0.75); Subtract (1,40.00 ,0.010); Combine (227:232-(206:213+248:255))
State	Diversity fail
Peak ID	2
Peak Ref	41
Time	1.6833
TIC	630830
BPI	196450
BPM	2334.7153
Continuum	FALSE
Saved	FALSE
[MASSES]
{
;Mass	Exp. Mass	Obs. Mass	% BPI	Int. Abs	Adducted Formula
1532.0000	1531.0000	0.0000	0.00	0.00	
}
[RESULTS]
{
;Mass	Found	% BPI	% Purity	Confirmed	Status
1532.0000	0	0.00	0.00	0	
}
[MS]
{
;Mass	% BPI
822.15	16.400
1070.52	56.872
1071.61	26.882
1073.28	16.623
1139.98	36.246
1154.13	16.283
2128.17	15.703
2334.72	100.000
2474.28	20.697
2612.42	15.408
}
}
[SPECTRUM]
{
ProcDesc	Center (Top,4, Ar); Smooth (Mn, 2x0.75); Subtract (1,40.00 ,0.010); Combine (239:245-(218:225+259:265))
State	Diversity fail
Peak ID	4
Peak Ref	42
Time	1.7733
TIC	1437525
BPI	297279
BPM	1234.5872
Continuum	FALSE
Saved	FALSE
[MASSES]
{
;Mass	Exp. Mass	Obs. Mass	% BPI	Int. Abs	Adducted Formula
1532.0000	1531.0000	0.0000	0.00	0.00	
}
[RESULTS]
{
;Mass	Found	% BPI	% Purity	Confirmed	Status
1532.0000	0	0.00	0.00	0	
}
[MS]
{
;Mass	% BPI
701.37	37.619
822.28	43.064
823.24	51.992
1096.69	25.911
1168.21	27.036
1234.59	100.000
1235.17	51.604
1236.20	77.637
1237.16	23.400
1258.58	45.299
}
}
[SPECTRUM]
{
ProcDesc	Center (Top,4, Ar); Smooth (Mn, 2x0.75); Subtract (1,40.00 ,0.010); Combine (245:251-(224:230+273:279))
State	Diversity fail
Peak ID	5
Peak Ref	25
Time	1.8177
TIC	3169042
BPI	903546
BPM	1259.8638
Continuum	FALSE
Saved	FALSE
[MASSES]
{
;Mass	Exp. Mass	Obs. Mass	% BPI	Int. Abs	Adducted Formula
1532.0000	1531.0000	0.0000	0.00	0.00	
}
[RESULTS]
{
;Mass	Found	% BPI	% Purity	Confirmed	Status
1532.0000	0	0.00	0.00	0	
}
[MS]
{
;Mass	% BPI
529.41	14.361
1212.59	14.921
1213.49	14.561
1214.65	15.406
1258.58	88.115
1259.41	61.427
1259.86	100.000
1262.24	13.346
1331.45	11.652
2061.08	16.945
}
}
[SPECTRUM]
{
ProcDesc	Center (Top,4, Ar); Smooth (Mn, 2x0.75); Subtract (1,40.00 ,0.010); Combine (257:263-(239:245+285:291))
State	Diversity fail
Peak ID	7
Peak Ref	26
Time	1.9057
TIC	1604908
BPI	566216
BPM	846.3277
Continuum	FALSE
Saved	FALSE
[MASSES]
{
;Mass	Exp. Mass	Obs. Mass	% BPI	Int. Abs	Adducted Formula
1532.0000	1531.0000	0.0000	0.00	0.00	
}
[RESULTS]
{
;Mass	Found	% BPI	% Purity	Confirmed	Status
1532.0000	0	0.00	0.00	0	
}
[MS]
{
;Mass	% BPI
538.67	7.677
846.33	100.000
846.84	32.254
847.42	63.643
848.77	32.482
1172.91	9.056
1196.58	10.600
1197.03	7.432
1198.83	10.686
1695.39	9.615
}
}
[SPECTRUM]
{
ProcDesc	Center (Top,4, Ar); Smooth (Mn, 2x0.75); Subtract (1,40.00 ,0.010); Combine (269:275-(251:257+292:298))
State	Diversity fail
Peak ID	8
Peak Ref	27
Time	1.9936
TIC	671553
BPI	163175
BPM	847.2281
Continuum	FALSE
Saved	FALSE
[MASSES]
{
;Mass	Exp. Mass	Obs. Mass	% BPI	Int. Abs	Adducted Formula
1532.0000	1531.0000	0.0000	0.00	0.00	
}
[RESULTS]
{
;Mass	Found	% BPI	% Purity	Confirmed	Status
1532.0000	0	0.00	0.00	0	
}
[MS]
{
;Mass	% BPI
743.05	24.029
830.19	47.143
831.15	24.729
846.39	91.381
847.23	100.000
862.28	24.580
878.10	23.821
946.65	26.376
1158.31	23.291
1896.98	26.202
}
}
[SPECTRUM]
{
ProcDesc	Center (Top,4, Ar); Smooth (Mn, 2x0.75); Subtract (1,40.00 ,0.010); Combine (283:289-(258:264+301:307))
State	Diversity fail
Peak ID	10
Peak Ref	28
Time	2.0963
TIC	394031
BPI	61857
BPM	644.5233
Continuum	FALSE
Saved	FALSE
[MASSES]
{
;Mass	Exp. Mass	Obs. Mass	% BPI	Int. Abs	Adducted Formula
1532.0000	1531.0000	0.0000	0.00	0.00	
}
[RESULTS]
{
;Mass	Found	% BPI	% Purity	Confirmed	Status
1532.0000	0	0.00	0.00	0	
}
[MS]
{
;Mass	% BPI
570.95	49.709
644.52	100.000
766.71	55.365
1149.24	55.278
1208.92	55.476
1337.05	48.742
1553.04	73.416
1577.80	71.138
1604.17	61.524
2995.64	66.355
}
}
[SPECTRUM]
{
ProcDesc	Center (Top,4, Ar); Smooth (Mn, 2x0.75); Subtract (1,40.00 ,0.010); Combine (289:295-(268:275+314:321))
State	Diversity fail
Peak ID	11
Peak Ref	38
Time	2.1400
TIC	954038
BPI	169358
BPM	701.1802
Continuum	FALSE
Saved	FALSE
[MASSES]
{
;Mass	Exp. Mass	Obs. Mass	% BPI	Int. Abs	Adducted Formula
1532.0000	1531.0000	0.0000	0.00	0.00	
}
[RESULTS]
{
;Mass	Found	% BPI	% Purity	Confirmed	Status
1532.0000	0	0.00	0.00	0	
}
[MS]
{
;Mass	% BPI
701.18	100.000
701.69	89.465
702.27	90.208
703.82	45.261
747.35	36.168
1278.52	48.405
1403.94	43.470
1405.29	36.102
1547.95	38.372
1593.69	35.873
}
}
[SPECTRUM]
{
ProcDesc	Center (Top,4, Ar); Smooth (Mn, 2x0.75); Subtract (1,40.00 ,0.010); Combine (297:303-(273:279+325:331))
State	Diversity fail
Peak ID	12
Peak Ref	30
Time	2.1989
TIC	6190658
BPI	2047527
BPM	701.5017
Continuum	FALSE
Saved	FALSE
[MASSES]
{
;Mass	Exp. Mass	Obs. Mass	% BPI	Int. Abs	Adducted Formula
1532.0000	1531.0000	0.0000	0.00	0.00	
}
[RESULTS]
{
;Mass	Found	% BPI	% Purity	Confirmed	Status
1532.0000	0	0.00	0.00	0	
}
[MS]
{
;Mass	% BPI
701.50	100.000
702.47	46.279
703.50	18.126
747.42	23.487
748.45	9.127
1404.00	34.023
1404.52	24.864
1404.90	23.104
1405.87	11.668
1406.32	11.671
}
}
[SPECTRUM]
{
ProcDesc	Center (Top,4, Ar); Smooth (Mn, 2x0.75); Subtract (1,40.00 ,0.010); Combine (310:316-(291:297+330:336))
State	Diversity fail
Peak ID	13
Peak Ref	31
Time	2.2942
TIC	2205435
BPI	868577
BPM	968.5833
Continuum	FALSE
Saved	FALSE
[MASSES]
{
;Mass	Exp. Mass	Obs. Mass	% BPI	Int. Abs	Adducted Formula
1532.0000	1531.0000	0.0000	0.00	0.00	
}
[RESULTS]
{
;Mass	Found	% BPI	% Purity	Confirmed	Status
1532.0000	0	0.00	0.00	0	
}
[MS]
{
;Mass	% BPI
913.66	8.717
922.47	16.999
968.58	100.000
969.42	49.737
970.38	26.608
971.48	9.107
987.36	9.040
1037.53	9.472
1040.42	8.510
1068.53	15.724
}
}
[SPECTRUM]
{
ProcDesc	Center (Top,4, Ar); Smooth (Mn, 2x0.75); Subtract (1,40.00 ,0.010); Combine (314:320-(291:298+334:341))
State	Diversity fail
Peak ID	14
Peak Ref	43
Time	2.3234
TIC	2088090
BPI	353286
BPM	1015.5956
Continuum	FALSE
Saved	FALSE
[MASSES]
{
;Mass	Exp. Mass	Obs. Mass	% BPI	Int. Abs	Adducted Formula
1532.0000	1531.0000	0.0000	0.00	0.00	
}
[RESULTS]
{
;Mass	Found	% BPI	% Purity	Confirmed	Status
1532.0000	0	0.00	0.00	0	
}
[MS]
{
;Mass	% BPI
915.59	68.799
916.56	73.074
968.52	96.345
969.42	46.549
970.38	33.725
1015.60	100.000
1552.97	42.671
1553.68	38.501
1554.58	65.709
1555.74	25.675
}
}
[SPECTRUM]
{
ProcDesc	Center (Top,4, Ar); Smooth (Mn, 2x0.75); Subtract (1,40.00 ,0.010); Combine (326:331-(300:307+357:364))
State	Diversity fail
Peak ID	16
Peak Ref	44
Time	2.4067
TIC	3243388
BPI	627617
BPM	1577.7362
Continuum	FALSE
Saved	FALSE
[MASSES]
{
;Mass	Exp. Mass	Obs. Mass	% BPI	Int. Abs	Adducted Formula
1532.0000	1531.0000	0.0000	0.00	0.00	
}
[RESULTS]
{
;Mass	Found	% BPI	% Purity	Confirmed	Status
1532.0000	0	0.00	0.00	0	
}
[MS]
{
;Mass	% BPI
945.69	36.836
948.52	46.658
949.55	45.438
1553.55	27.121
1577.29	73.688
1577.74	100.000
1578.25	48.563
1578.89	68.996
1612.99	24.935
1614.47	44.544
}
}
[SPECTRUM]
{
ProcDesc	Center (Top,4, Ar); Smooth (Mn, 2x0.75); Subtract (1,40.00 ,0.010); Combine (338:344-(314:320+364:370))
State	OK
Peak ID	17
Peak Ref	33
Time	2.4994
TIC	2266297
BPI	809435
BPM	1577.5432
Continuum	FALSE
Saved	FALSE
[MASSES]
{
;Mass	Exp. Mass	Obs. Mass	% BPI	Int. Abs	Adducted Formula
1532.0000	1531.0000	1531.4235	10.46	84631.16	
}
[RESULTS]
{
;Mass	Found	% BPI	% Purity	Confirmed	Status
1532.0000	0	10.46	3.73	0	
}
[MS]
{
;Mass	% BPI
701.76	9.666
1531.42	10.456
1576.26	18.682
1577.54	100.000
1578.51	54.837
1578.89	30.608
1579.67	28.486
1580.18	11.532
1580.95	8.612
1650.68	7.106
}
}
[SPECTRUM]
{
ProcDesc	Center (Top,4, Ar); Smooth (Mn, 2x0.75); Subtract (1,40.00 ,0.010); Combine (349:355-(330:336+376:382))
State	Diversity fail
Peak ID	18
Peak Ref	34
Time	2.5801
TIC	547132
BPI	117334
BPM	723.3670
Continuum	FALSE
Saved	FALSE
[MASSES]
{
;Mass	Exp. Mass	Obs. Mass	% BPI	Int. Abs	Adducted Formula
1532.0000	1531.0000	0.0000	0.00	0.00	
}
[RESULTS]
{
;Mass	Found	% BPI	% Purity	Confirmed	Status
1532.0000	0	0.00	0.00	0	
}
[MS]
{
;Mass	% BPI
532.88	32.043
607.22	33.806
635.20	36.294
701.63	97.844
702.53	32.487
723.37	100.000
723.82	37.103
1595.30	32.633
1645.08	32.391
1648.81	31.703
}
}
[SPECTRUM]
{
ProcDesc	Center (Top,4, Ar); Smooth (Mn, 2x0.75); Subtract (1,40.00 ,0.010); Combine (366:372-(342:348+396:402))
State	Diversity fail
Peak ID	20
Peak Ref	35
Time	2.7047
TIC	394326
BPI	47520
BPM	1666.6323
Continuum	FALSE
Saved	FALSE
[MASSES]
{
;Mass	Exp. Mass	Obs. Mass	% BPI	Int. Abs	Adducted Formula
1532.0000	1531.0000	0.0000	0.00	0.00	
}
[RESULTS]
{
;Mass	Found	% BPI	% Purity	Confirmed	Status
1532.0000	0	0.00	0.00	0	
}
[MS]
{
;Mass	% BPI
518.73	95.482
579.06	76.786
701.18	76.104
749.16	99.145
815.20	73.927
862.92	80.574
1205.58	73.598
1580.63	81.742
1666.63	100.000
2407.07	72.449
}
}
[CHROMATOGRAM]
{
TraceNumber	4
Description	MS ES- :TIC
ProcDesc
MaxIntensity	1293924480.00
[TRACE]
{
0.00705	0.009
0.01437	0.008
0.02170	0.006
0.02905	0.009
0.03637	0.013
0.04370	0.008
0.05103	0.009
0.05837	0.010
0.06570	0.010
0.07302	0.015
0.08035	0.009
0.08768	0.009
0.09500	0.009
0.10235	0.041
0.10968	0.010
0.11702	0.005
0.12433	0.010
0.13167	0.010
0.13898	0.060
0.14633	0.012
0.15367	0.017
0.16100	0.012
0.16833	0.012
0.17567	0.009
0.18297	0.009
0.19032	0.016
0.19765	0.010
0.20497	0.007
0.21230	0.006
0.21963	0.008
0.22697	0.062
0.23428	0.005
0.24162	0.006
0.24897	0.038
0.25628	0.009
0.26363	0.007
0.27095	0.007
0.27828	0.010
0.28563	0.006
0.29295	0.008
0.30027	0.009
0.30762	0.009
0.31493	0.009
0.32227	0.005
0.32960	0.012
0.33693	0.008
0.34425	0.012
0.35158	0.007
0.35892	0.012
0.36627	0.010
0.37360	0.029
0.38090	0.006
0.38825	0.007
0.39557	0.008
0.40290	0.010
0.41023	0.008
0.41757	0.008
0.42488	0.011
0.43223	0.008
0.43955	0.008
0.44688	0.008
0.45422	0.006
0.46155	0.008
0.46888	0.012
0.47620	0.007
0.48353	0.010
0.49087	0.006
0.49820	0.007
0.50553	0.007
0.51287	0.008
0.52020	0.183
0.52752	3.700
0.53487	0.826
0.54218	2.133
0.54952	0.609
0.55685	0.212
0.56418	0.290
0.57150	0.454
0.57885	0.205
0.58618	0.382
0.59350	0.367
0.60082	0.317
0.60815	0.141
0.61548	0.262
0.62282	0.398
0.63017	0.421
0.63748	0.149
0.64480	0.712
0.65213	0.200
0.65948	0.411
0.66680	0.565
0.67413	0.527
0.68147	0.361
0.68878	0.468
0.69612	0.658
0.70345	0.617
0.71078	0.485
0.71812	0.343
0.72545	0.459
0.73277	0.341
0.74010	0.243
0.74743	0.339
0.75475	0.252
0.76210	0.450
0.76942	0.356
0.77677	0.336
0.78408	0.409
0.79142	0.183
0.79877	0.338
0.80607	0.353
0.81342	0.283
0.82073	0.786
0.82807	0.447
0.83540	0.123
0.84273	0.380
0.85007	0.217
0.85740	0.174
0.86472	0.346
0.87205	0.086
0.87938	0.707
0.88672	0.342
0.89403	0.424
0.90138	0.263
0.90872	0.736
0.91603	0.321
0.92337	0.409
0.93070	0.434
0.93802	0.194
0.94535	0.335
0.95268	0.867
0.96002	0.484
0.96735	0.331
0.97468	0.811
0.98202	0.428
0.98933	0.472
0.99668	0.745
1.00400	0.225
1.01133	0.595
1.01867	0.171
1.02600	0.319
1.03332	0.695
1.04065	0.623
1.04798	0.546
1.05532	0.557
1.06263	0.452
1.06998	0.315
1.07730	0.624
1.08463	0.611
1.09197	0.815
1.09930	0.448
1.10663	0.649
1.11395	0.635
1.12128	0.542
1.12863	0.512
1.13595	0.564
1.14328	0.599
1.15060	0.328
1.15795	0.506
1.16527	0.686
1.17262	0.532
1.17993	0.739
1.18727	1.171
1.19460	1.023
1.20192	0.907
1.20925	0.740
1.21658	1.179
1.22392	1.330
1.23125	0.838
1.23858	0.924
1.24590	0.752
1.25323	0.971
1.26057	0.579
1.26792	1.105
1.27523	0.663
1.28257	1.326
1.28990	1.057
1.29722	1.054
1.30455	1.615
1.31188	1.148
1.31922	1.072
1.32655	0.759
1.33388	1.048
1.34120	1.410
1.34853	0.899
1.35587	2.413
1.36318	1.680
1.37052	1.503
1.37785	1.361
1.38518	1.677
1.39252	1.828
1.39985	1.907
1.40720	0.997
1.41452	1.904
1.42183	1.484
1.42917	1.357
1.43650	1.497
1.44383	1.330
1.45115	1.791
1.45848	1.752
1.46582	1.212
1.47317	2.031
1.48050	1.769
1.48782	1.865
1.49513	1.908
1.50248	2.120
1.50980	5.029
1.51713	5.673
1.52447	5.398
1.53182	3.745
1.53912	4.265
1.54647	4.107
1.55380	4.588
1.56112	5.021
1.56845	4.981
1.57578	4.076
1.58312	3.672
1.59045	6.251
1.59778	4.401
1.60512	4.601
1.61243	4.677
1.61977	4.331
1.62708	4.641
1.63442	4.326
1.64175	6.340
1.64908	6.231
1.65643	5.711
1.66377	5.940
1.67107	8.395
1.67842	10.956
1.68573	9.963
1.69307	10.973
1.70040	11.174
1.70773	15.807
1.71507	20.764
1.72238	19.803
1.72973	25.673
1.73705	36.375
1.74440	70.507
1.75172	94.363
1.75905	100.000
1.76638	86.498
1.77372	72.780
1.78105	62.703
1.78837	63.787
1.79570	66.284
1.80303	67.110
1.81035	79.885
1.81768	82.363
1.82502	81.134
1.83235	72.500
1.83970	65.845
1.84702	51.847
1.85435	48.952
1.86167	43.512
1.86900	38.051
1.87633	37.558
1.88367	35.987
1.89098	35.097
1.89833	30.357
1.90567	36.397
1.91300	33.517
1.92032	32.861
1.92765	31.009
1.93498	30.525
1.94230	32.939
1.94965	26.405
1.95697	25.972
1.96430	23.166
1.97163	22.201
1.97897	20.681
1.98630	19.170
1.99362	21.277
2.00095	18.880
2.00830	19.794
2.01562	19.116
2.02295	17.337
2.03028	17.160
2.03760	16.345
2.04493	17.371
2.05227	21.407
2.05960	23.481
2.06693	27.184
2.07425	25.642
2.08158	26.995
2.08892	28.986
2.09625	30.656
2.10357	27.920
2.11090	27.172
2.11823	32.901
2.12557	33.674
2.13290	30.583
2.14023	28.203
2.14755	24.651
2.15490	25.257
2.16222	29.256
2.16953	31.684
2.17687	37.091
2.18420	38.781
2.19153	40.915
2.19888	43.382
2.20620	38.586
2.21355	32.250
2.22088	29.326
2.22818	31.659
2.23552	29.193
2.24285	28.702
2.25018	28.366
2.25752	26.037
2.26485	27.468
2.27218	24.859
2.27950	23.348
2.28683	24.969
2.29417	25.187
2.30150	21.830
2.30883	22.853
2.31615	19.666
2.32350	21.817
2.33082	26.013
2.33815	28.838
2.34548	32.803
2.35283	37.442
2.36015	38.065
2.36750	38.448
2.37483	40.534
2.38215	39.518
2.38947	40.660
2.39680	41.227
2.40413	41.635
2.41145	40.972
2.41878	34.861
2.42613	33.196
2.43345	30.490
2.44078	27.836
2.44812	26.309
2.45543	26.122
2.46278	29.137
2.47010	31.214
2.47743	32.071
2.48477	36.105
2.49210	35.923
2.49943	36.790
2.50675	34.070
2.51408	32.429
2.52143	33.422
2.52875	32.659
2.53608	32.141
2.54340	30.758
2.55075	29.936
2.55807	27.458
2.56540	24.914
2.57273	25.387
2.58007	27.008
2.58740	23.443
2.59472	24.948
2.60207	22.396
2.60938	23.177
2.61672	22.248
2.62405	19.227
2.63137	16.716
2.63872	17.264
2.64603	17.312
2.65337	15.899
2.66070	17.702
2.66802	18.199
2.67537	18.746
2.68268	18.585
2.69002	21.459
2.69735	24.827
2.70468	26.581
2.71202	24.655
2.71935	22.402
2.72668	19.631
2.73400	17.426
2.74133	15.767
2.74865	16.197
2.75600	14.463
2.76332	14.994
2.77065	11.335
2.77798	12.485
2.78532	11.226
2.79265	11.999
2.79997	10.636
2.80732	11.374
2.81465	11.350
2.82197	12.359
2.82930	10.022
2.83663	11.434
2.84397	9.597
2.85130	9.062
2.85862	10.006
2.86595	8.210
2.87328	9.668
2.88062	9.006
2.88795	10.135
2.89528	8.999
2.90260	8.977
2.90993	8.736
2.91727	8.602
2.92460	9.569
2.93192	9.376
2.93925	9.963
2.94658	9.577
2.95392	9.173
2.96123	9.487
2.96858	8.490
2.97592	6.225
2.98325	7.440
2.99057	6.220
2.99790	5.723
3.00523	8.917
3.01255	7.420
3.01990	6.544
3.02723	7.424
3.03455	6.202
3.04188	4.720
3.04922	4.342
3.05655	4.563
3.06387	4.272
3.07120	4.332
3.07853	3.567
3.08587	3.238
3.09320	4.087
3.10053	4.055
3.10787	2.734
3.11520	3.348
3.12253	1.965
3.12985	2.193
3.13718	2.134
3.14452	3.176
3.15185	2.764
3.15917	3.064
3.16650	3.046
3.17385	2.367
3.18117	1.673
3.18850	2.293
3.19583	2.353
3.20317	1.895
3.21050	2.280
3.21783	1.657
3.22515	1.094
3.23248	1.367
3.23980	2.125
3.24715	1.342
3.25447	2.308
3.26180	2.112
3.26913	1.833
3.27647	1.294
3.28380	1.613
3.29112	0.846
3.29843	1.193
3.30578	2.187
3.31312	1.691
3.32043	1.316
3.32777	1.203
3.33510	1.236
3.34243	1.238
3.34977	1.206
3.35710	1.103
3.36442	1.067
3.37175	0.937
3.37910	0.677
3.38642	1.004
3.39375	1.039
3.40108	1.044
3.40842	1.141
3.41575	2.211
3.42308	1.651
3.43042	0.345
3.43773	0.550
3.44507	0.957
3.45238	1.033
3.45972	0.909
3.46705	0.570
3.47438	0.727
3.48172	0.734
3.48905	0.890
3.49637	0.455
}
[PEAK]
{
Peak ID	3
Peak Ref	24
Time	1.7591
Peak	1.6564	1.7884
Intensity	73897984.00	81249984.00
Height	1214308224.00
AreaAbs	55913056.0000
Area %BP	78.02
Area %Total	16.52
Width	0.13
Response Test	0
}
[PEAK]
{
Peak ID	5
Peak Ref	25
Time	1.8177
Peak	1.7884	1.8983
Intensity	81249984.00	87377888.00
Height	982836160.00
AreaAbs	71662040.0000
Area %BP	100.00
Area %Total	21.18
Width	0.11
Response Test	0
}
[PEAK]
{
Peak ID	7
Peak Ref	26
Time	1.9057
Peak	1.8983	1.9863
Intensity	87377888.00	92279840.00
Height	383163360.00
AreaAbs	24388178.0000
Area %BP	34.03
Area %Total	7.21
Width	0.09
Response Test	0
}
[PEAK]
{
Peak ID	8
Peak Ref	27
Time	1.9936
Peak	1.9863	2.0376
Intensity	92279840.00	95138544.00
Height	182618928.00
AreaAbs	7645512.0000
Area %BP	10.67
Area %Total	2.26
Width	0.05
Response Test	0
}
[PEAK]
{
Peak ID	10
Peak Ref	28
Time	2.0963
Peak	2.0376	2.1036
Intensity	95138544.00	98814544.00
Height	298253952.00
AreaAbs	14831695.0000
Area %BP	20.70
Area %Total	4.38
Width	0.07
Response Test	0
}
[PEAK]
{
Peak ID	11
Peak Ref	29
Time	2.1256
Peak	2.1036	2.1476
Intensity	98814544.00	101265528.00
Height	335671520.00
AreaAbs	12561957.0000
Area %BP	17.53
Area %Total	3.71
Width	0.04
Response Test	0
}
[PEAK]
{
Peak ID	12
Peak Ref	30
Time	2.1989
Peak	2.1476	2.2795
Intensity	101265528.00	108618448.00
Height	457200000.00
AreaAbs	39918848.0000
Area %BP	55.70
Area %Total	11.80
Width	0.13
Response Test	0
}
[PEAK]
{
Peak ID	13
Peak Ref	31
Time	2.2942
Peak	2.2795	2.3161
Intensity	108618448.00	110660768.00
Height	216460448.00
AreaAbs	7016832.5000
Area %BP	9.79
Area %Total	2.07
Width	0.04
Response Test	0
}
[PEAK]
{
Peak ID	16
Peak Ref	32
Time	2.4041
Peak	2.3161	2.4481
Intensity	110660768.00	118014640.00
Height	423166848.00
AreaAbs	43470812.0000
Area %BP	60.66
Area %Total	12.85
Width	0.13
Response Test	0
}
[PEAK]
{
Peak ID	17
Peak Ref	33
Time	2.4994
Peak	2.4481	2.5654
Intensity	118014640.00	124550256.00
Height	355156704.00
AreaAbs	33754120.0000
Area %BP	47.10
Area %Total	9.97
Width	0.12
Response Test	0
}
[PEAK]
{
Peak ID	18
Peak Ref	34
Time	2.5801
Peak	2.5654	2.6534
Intensity	124550256.00	129452208.00
Height	224092912.00
AreaAbs	13445493.0000
Area %BP	18.76
Area %Total	3.97
Width	0.09
Response Test	0
}
[PEAK]
{
Peak ID	20
Peak Ref	35
Time	2.7047
Peak	2.6534	2.8000
Intensity	129452208.00	137621504.00
Height	211629312.00
AreaAbs	13805194.0000
Area %BP	19.26
Area %Total	4.08
Width	0.15
Response Test	0
}
}
[CHROMATOGRAM]
{
TraceNumber	5
Description	MS ES- :BPI
ProcDesc
MaxIntensity	10283008.00
[TRACE]
{
0.00705	0.119
0.01437	0.080
0.02170	0.080
0.02905	0.119
0.03637	0.418
0.04370	0.119
0.05103	0.100
0.05837	0.100
0.06570	0.139
0.07302	0.239
0.08035	0.119
0.08768	0.139
0.09500	0.100
0.10235	2.430
0.10968	0.119
0.11702	0.100
0.12433	0.139
0.13167	0.100
0.13898	3.187
0.14633	0.119
0.15367	0.817
0.16100	0.199
0.16833	0.100
0.17567	0.159
0.18297	0.080
0.19032	0.717
0.19765	0.139
0.20497	0.119
0.21230	0.100
0.21963	0.119
0.22697	4.202
0.23428	0.080
0.24162	0.139
0.24897	2.071
0.25628	0.100
0.26363	0.100
0.27095	0.100
0.27828	0.119
0.28563	0.060
0.29295	0.139
0.30027	0.139
0.30762	0.100
0.31493	0.139
0.32227	0.060
0.32960	0.119
0.33693	0.060
0.34425	0.319
0.35158	0.100
0.35892	0.199
0.36627	0.100
0.37360	1.255
0.38090	0.080
0.38825	0.119
0.39557	0.100
0.40290	0.179
0.41023	0.159
0.41757	0.100
0.42488	0.159
0.43223	0.119
0.43955	0.100
0.44688	0.100
0.45422	0.100
0.46155	0.060
0.46888	0.199
0.47620	0.199
0.48353	0.139
0.49087	0.119
0.49820	0.119
0.50553	0.080
0.51287	0.100
0.52020	7.090
0.52752	17.048
0.53487	13.862
0.54218	14.619
0.54952	8.086
0.55685	3.764
0.56418	7.289
0.57150	10.436
0.57885	5.756
0.58618	9.401
0.59350	5.019
0.60082	4.959
0.60815	2.808
0.61548	4.999
0.62282	7.568
0.63017	7.508
0.63748	2.211
0.64480	8.484
0.65213	4.720
0.65948	6.413
0.66680	8.763
0.67413	10.735
0.68147	8.206
0.68878	4.899
0.69612	11.293
0.70345	7.110
0.71078	5.318
0.71812	4.800
0.72545	8.026
0.73277	13.643
0.74010	4.083
0.74743	7.389
0.75475	5.537
0.76210	9.839
0.76942	4.919
0.77677	9.361
0.78408	5.895
0.79142	3.525
0.79877	5.636
0.80607	9.162
0.81342	5.238
0.82073	13.563
0.82807	7.967
0.83540	3.266
0.84273	14.539
0.85007	8.524
0.85740	7.449
0.86472	8.425
0.87205	2.948
0.87938	21.490
0.88672	9.480
0.89403	6.015
0.90138	5.318
0.90872	11.193
0.91603	7.070
0.92337	11.532
0.93070	13.125
0.93802	4.163
0.94535	6.991
0.95268	12.786
0.96002	10.914
0.96735	7.728
0.97468	13.244
0.98202	4.182
0.98933	9.958
0.99668	12.985
1.00400	5.298
1.01133	16.471
1.01867	4.780
1.02600	5.955
1.03332	12.089
1.04065	14.400
1.04798	9.779
1.05532	11.611
1.06263	13.065
1.06998	7.967
1.07730	11.492
1.08463	11.412
1.09197	8.664
1.09930	7.110
1.10663	8.783
1.11395	8.464
1.12128	10.038
1.12863	11.392
1.13595	14.778
1.14328	9.162
1.15060	5.497
1.15795	6.811
1.16527	11.611
1.17262	4.621
1.17993	6.831
1.18727	13.523
1.19460	13.802
1.20192	10.018
1.20925	8.046
1.21658	13.344
1.22392	15.356
1.23125	10.277
1.23858	11.193
1.24590	8.026
1.25323	11.711
1.26057	9.420
1.26792	15.953
1.27523	6.493
1.28257	14.678
1.28990	8.425
1.29722	16.849
1.30455	9.938
1.31188	19.797
1.31922	14.380
1.32655	8.923
1.33388	10.137
1.34120	13.503
1.34853	6.811
1.35587	13.065
1.36318	16.053
1.37052	18.044
1.37785	10.595
1.38518	9.401
1.39252	9.221
1.39985	15.276
1.40720	11.512
1.41452	15.714
1.42183	11.173
1.42917	12.647
1.43650	10.715
1.44383	8.544
1.45115	10.994
1.45848	9.341
1.46582	10.217
1.47317	10.197
1.48050	9.879
1.48782	11.073
1.49513	12.169
1.50248	16.351
1.50980	22.924
1.51713	11.870
1.52447	14.639
1.53182	9.679
1.53912	10.894
1.54647	12.428
1.55380	15.037
1.56112	17.188
1.56845	15.276
1.57578	18.303
1.58312	18.323
1.59045	12.328
1.59778	9.779
1.60512	11.472
1.61243	19.797
1.61977	10.416
1.62708	13.663
1.63442	10.775
1.64175	11.093
1.64908	14.360
1.65643	17.009
1.66377	10.675
1.67107	18.741
1.67842	100.000
1.68573	16.471
1.69307	13.941
1.70040	12.428
1.70773	26.071
1.71507	27.285
1.72238	28.520
1.72973	21.390
1.73705	23.800
1.74440	16.252
1.75172	17.407
1.75905	19.438
1.76638	17.865
1.77372	19.837
1.78105	19.817
1.78837	19.558
1.79570	17.526
1.80303	26.509
1.81035	27.246
1.81768	27.843
1.82502	50.030
1.83235	24.358
1.83970	44.872
1.84702	15.415
1.85435	26.329
1.86167	20.653
1.86900	17.845
1.87633	23.740
1.88367	17.686
1.89098	16.152
1.89833	31.368
1.90567	17.287
1.91300	17.706
1.92032	16.451
1.92765	20.295
1.93498	17.606
1.94230	49.492
1.94965	14.599
1.95697	18.901
1.96430	27.504
1.97163	26.309
1.97897	13.722
1.98630	16.690
1.99362	18.562
2.00095	20.036
2.00830	16.252
2.01562	18.522
2.02295	15.734
2.03028	16.949
2.03760	24.557
2.04493	12.249
2.05227	17.905
2.05960	12.906
2.06693	14.519
2.07425	12.348
2.08158	12.308
2.08892	24.876
2.09625	16.650
2.10357	15.196
2.11090	12.647
2.11823	15.933
2.12557	19.877
2.13290	16.829
2.14023	13.941
2.14755	21.868
2.15490	15.993
2.16222	36.706
2.16953	37.502
2.17687	70.882
2.18420	39.753
2.19153	54.292
2.19888	43.497
2.20620	45.569
2.21355	28.062
2.22088	24.836
2.22818	28.341
2.23552	16.172
2.24285	26.568
2.25018	21.251
2.25752	35.989
2.26485	19.179
2.27218	17.028
2.27950	23.222
2.28683	20.952
2.29417	17.785
2.30150	26.290
2.30883	19.279
2.31615	15.774
2.32350	20.255
2.33082	26.389
2.33815	23.442
2.34548	20.992
2.35283	30.372
2.36015	20.374
2.36750	24.676
2.37483	38.797
2.38215	16.092
2.38947	20.633
2.39680	17.945
2.40413	20.594
2.41145	27.345
2.41878	16.909
2.42613	28.480
2.43345	23.581
2.44078	21.828
2.44812	28.899
2.45543	29.974
2.46278	29.377
2.47010	27.743
2.47743	23.959
2.48477	26.190
2.49210	25.373
2.49943	20.594
2.50675	18.104
2.51408	13.782
2.52143	18.443
2.52875	19.777
2.53608	14.818
2.54340	15.256
2.55075	18.701
2.55807	21.151
2.56540	13.762
2.57273	17.945
2.58007	15.336
2.58740	12.766
2.59472	14.778
2.60207	14.718
2.60938	19.299
2.61672	16.132
2.62405	15.814
2.63137	13.145
2.63872	11.830
2.64603	14.141
2.65337	14.061
2.66070	18.662
2.66802	13.842
2.67537	74.328
2.68268	29.616
2.69002	15.794
2.69735	18.243
2.70468	13.722
2.71202	11.253
2.71935	15.833
2.72668	14.101
2.73400	15.535
2.74133	10.954
2.74865	68.393
2.75600	15.415
2.76332	17.825
2.77065	12.328
2.77798	19.618
2.78532	14.041
2.79265	15.037
2.79997	14.917
2.80732	18.482
2.81465	27.146
2.82197	15.774
2.82930	15.296
2.83663	13.961
2.84397	17.467
2.85130	12.906
2.85862	21.769
2.86595	13.105
2.87328	13.941
2.88062	14.499
2.88795	17.626
2.89528	11.412
2.90260	14.161
2.90993	25.413
2.91727	12.308
2.92460	12.209
2.93192	14.579
2.93925	20.912
2.94658	17.108
2.95392	14.977
2.96123	10.755
2.96858	14.141
2.97592	13.105
2.98325	13.165
2.99057	12.866
2.99790	11.153
3.00523	14.917
3.01255	15.515
3.01990	15.555
3.02723	23.362
3.03455	14.758
3.04188	15.555
3.04922	14.559
3.05655	11.890
3.06387	10.576
3.07120	11.790
3.07853	13.165
3.08587	12.826
3.09320	12.069
3.10053	13.643
3.10787	12.368
3.11520	13.404
3.12253	10.874
3.12985	11.372
3.13718	11.850
3.14452	21.071
3.15185	14.320
3.15917	16.690
3.16650	16.809
3.17385	11.253
3.18117	13.185
3.18850	28.739
3.19583	14.180
3.20317	19.857
3.21050	14.977
3.21783	22.525
3.22515	8.723
3.23248	10.496
3.23980	17.188
3.24715	10.237
3.25447	87.254
3.26180	13.304
3.26913	11.731
3.27647	10.416
3.28380	14.738
3.29112	8.962
3.29843	10.018
3.30578	24.915
3.31312	17.248
3.32043	7.986
3.32777	11.492
3.33510	7.648
3.34243	21.808
3.34977	8.425
3.35710	11.372
3.36442	9.381
3.37175	14.798
3.37910	7.728
3.38642	9.321
3.39375	16.929
3.40108	16.929
3.40842	18.124
3.41575	23.143
3.42308	23.740
3.43042	4.342
3.43773	12.826
3.44507	15.495
3.45238	11.651
3.45972	11.472
3.46705	7.867
3.47438	8.863
3.48172	9.142
3.48905	14.240
3.49637	13.762
}
}
[CHROMATOGRAM]
{
TraceNumber	6
Description	MS ES- :1531 1.5000Da
TargetMass	1532.0000
ProcDesc
MaxIntensity	5165056.00
[TRACE]
{
0.00705	0.000
0.01437	0.000
0.02170	0.000
0.02905	0.000
0.03637	0.000
0.04370	0.000
0.05103	0.000
0.05837	0.000
0.06570	0.000
0.07302	0.000
0.08035	0.000
0.08768	0.000
0.09500	0.000
0.10235	0.000
0.10968	0.000
0.11702	0.000
0.12433	0.000
0.13167	0.000
0.13898	0.000
0.14633	0.000
0.15367	0.000
0.16100	0.000
0.16833	0.000
0.17567	0.000
0.18297	0.000
0.19032	0.000
0.19765	0.000
0.20497	0.000
0.21230	0.000
0.21963	0.000
0.22697	0.000
0.23428	0.000
0.24162	0.000
0.24897	0.000
0.25628	0.000
0.26363	0.000
0.27095	0.000
0.27828	0.000
0.28563	0.000
0.29295	0.000
0.30027	0.000
0.30762	0.000
0.31493	0.000
0.32227	0.000
0.32960	0.000
0.33693	0.000
0.34425	0.000
0.35158	0.000
0.35892	0.000
0.36627	0.000
0.37360	0.000
0.38090	0.000
0.38825	0.000
0.39557	0.000
0.40290	0.000
0.41023	0.000
0.41757	0.000
0.42488	0.000
0.43223	0.000
0.43955	0.000
0.44688	0.000
0.45422	0.000
0.46155	0.000
0.46888	0.000
0.47620	0.000
0.48353	0.000
0.49087	0.000
0.49820	0.000
0.50553	0.000
0.51287	0.000
0.52020	0.000
0.52752	0.000
0.53487	0.000
0.54218	0.000
0.54952	0.000
0.55685	0.000
0.56418	0.000
0.57150	0.000
0.57885	0.000
0.58618	0.000
0.59350	0.000
0.60082	0.000
0.60815	0.000
0.61548	0.000
0.62282	0.000
0.63017	0.000
0.63748	0.000
0.64480	0.000
0.65213	0.000
0.65948	0.000
0.66680	0.000
0.67413	0.000
0.68147	0.000
0.68878	0.000
0.69612	0.000
0.70345	0.000
0.71078	0.000
0.71812	0.000
0.72545	0.000
0.73277	0.000
0.74010	0.000
0.74743	0.000
0.75475	0.000
0.76210	0.000
0.76942	0.000
0.77677	0.000
0.78408	0.000
0.79142	0.000
0.79877	0.000
0.80607	0.000
0.81342	0.000
0.82073	0.000
0.82807	0.000
0.83540	0.000
0.84273	0.000
0.85007	0.000
0.85740	0.000
0.86472	0.000
0.87205	0.000
0.87938	0.000
0.88672	0.000
0.89403	0.000
0.90138	0.000
0.90872	0.000
0.91603	0.000
0.92337	0.000
0.93070	0.000
0.93802	0.000
0.94535	0.000
0.95268	0.000
0.96002	0.000
0.96735	0.000
0.97468	0.000
0.98202	0.000
0.98933	0.000
0.99668	0.000
1.00400	0.000
1.01133	0.000
1.01867	0.000
1.02600	0.000
1.03332	0.000
1.04065	0.000
1.04798	0.000
1.05532	0.000
1.06263	0.000
1.06998	0.000
1.07730	0.000
1.08463	0.000
1.09197	0.000
1.09930	0.000
1.10663	0.000
1.11395	0.000
1.12128	0.000
1.12863	0.000
1.13595	0.000
1.14328	0.000
1.15060	0.000
1.15795	0.000
1.16527	1.388
1.17262	0.000
1.17993	0.000
1.18727	0.000
1.19460	0.000
1.20192	0.000
1.20925	0.000
1.21658	0.000
1.22392	0.000
1.23125	0.000
1.23858	0.000
1.24590	0.000
1.25323	0.000
1.26057	0.000
1.26792	0.000
1.27523	0.000
1.28257	0.000
1.28990	0.000
1.29722	0.000
1.30455	0.000
1.31188	0.000
1.31922	0.000
1.32655	0.000
1.33388	0.000
1.34120	0.000
1.34853	0.000
1.35587	0.000
1.36318	0.000
1.37052	0.000
1.37785	0.000
1.38518	0.000
1.39252	0.000
1.39985	0.000
1.40720	0.000
1.41452	0.000
1.42183	0.000
1.42917	0.000
1.43650	0.000
1.44383	0.000
1.45115	0.000
1.45848	0.000
1.46582	2.895
1.47317	0.000
1.48050	0.000
1.48782	0.000
1.49513	0.000
1.50248	0.000
1.50980	0.000
1.51713	0.000
1.52447	0.000
1.53182	0.000
1.53912	0.000
1.54647	0.000
1.55380	16.971
1.56112	0.000
1.56845	0.000
1.57578	0.000
1.58312	0.000
1.59045	0.000
1.59778	0.040
1.60512	0.000
1.61243	0.000
1.61977	0.000
1.62708	0.000
1.63442	0.000
1.64175	0.000
1.64908	0.000
1.65643	0.000
1.66377	0.000
1.67107	0.000
1.67842	0.000
1.68573	0.040
1.69307	5.630
1.70040	0.238
1.70773	0.317
1.71507	0.000
1.72238	0.040
1.72973	0.357
1.73705	2.141
1.74440	10.587
1.75172	12.530
1.75905	12.292
1.76638	7.970
1.77372	24.504
1.78105	7.018
1.78837	22.244
1.79570	7.970
1.80303	11.340
1.81035	9.120
1.81768	6.542
1.82502	9.754
1.83235	6.384
1.83970	23.236
1.84702	2.855
1.85435	4.639
1.86167	3.132
1.86900	2.934
1.87633	9.754
1.88367	3.489
1.89098	0.753
1.89833	4.481
1.90567	14.314
1.91300	1.308
1.92032	1.705
1.92765	1.110
1.93498	3.450
1.94230	1.150
1.94965	0.595
1.95697	3.886
1.96430	0.753
1.97163	2.260
1.97897	0.436
1.98630	0.833
1.99362	1.745
2.00095	0.476
2.00830	0.436
2.01562	1.388
2.02295	21.055
2.03028	0.159
2.03760	1.903
2.04493	3.608
2.05227	2.498
2.05960	1.943
2.06693	1.110
2.07425	4.718
2.08158	2.141
2.08892	1.745
2.09625	2.458
2.10357	4.401
2.11090	2.934
2.11823	2.815
2.12557	1.507
2.13290	5.353
2.14023	3.450
2.14755	0.912
2.15490	1.784
2.16222	1.308
2.16953	1.308
2.17687	1.784
2.18420	1.308
2.19153	21.412
2.19888	1.308
2.20620	2.577
2.21355	1.427
2.22088	0.753
2.22818	1.388
2.23552	0.991
2.24285	2.300
2.25018	1.229
2.25752	1.903
2.26485	0.991
2.27218	1.626
2.27950	1.665
2.28683	1.308
2.29417	0.833
2.30150	17.328
2.30883	14.948
2.31615	14.592
2.32350	0.634
2.33082	1.031
2.33815	19.112
2.34548	2.657
2.35283	1.150
2.36015	3.807
2.36750	4.758
2.37483	3.529
2.38215	4.322
2.38947	6.106
2.39680	2.736
2.40413	25.496
2.41145	18.200
2.41878	39.096
2.42613	44.409
2.43345	69.944
2.44078	10.389
2.44812	68.200
2.45543	39.770
2.46278	47.185
2.47010	19.191
2.47743	29.699
2.48477	100.000
2.49210	61.697
2.49943	10.190
2.50675	25.020
2.51408	11.618
2.52143	12.609
2.52875	9.715
2.53608	5.115
2.54340	16.336
2.55075	14.274
2.55807	5.036
2.56540	3.489
2.57273	1.546
2.58007	21.055
2.58740	9.873
2.59472	2.220
2.60207	1.824
2.60938	0.674
2.61672	14.354
2.62405	1.071
2.63137	1.110
2.63872	21.610
2.64603	0.793
2.65337	1.507
2.66070	0.912
2.66802	1.150
2.67537	1.150
2.68268	3.251
2.69002	2.538
2.69735	6.305
2.70468	3.688
2.71202	1.586
2.71935	3.053
2.72668	1.943
2.73400	0.555
2.74133	2.022
2.74865	0.278
2.75600	0.278
2.76332	4.758
2.77065	0.595
2.77798	1.388
2.78532	1.190
2.79265	0.674
2.79997	0.595
2.80732	0.674
2.81465	0.991
2.82197	0.317
2.82930	0.476
2.83663	0.040
2.84397	0.397
2.85130	0.040
2.85862	0.119
2.86595	0.198
2.87328	5.551
2.88062	0.515
2.88795	0.357
2.89528	0.476
2.90260	0.357
2.90993	0.040
2.91727	1.150
2.92460	0.198
2.93192	0.000
2.93925	0.397
2.94658	0.674
2.95392	0.000
2.96123	0.000
2.96858	0.119
2.97592	0.000
2.98325	0.040
2.99057	0.000
2.99790	0.476
3.00523	0.040
3.01255	0.000
3.01990	0.040
3.02723	0.159
3.03455	0.159
3.04188	0.119
3.04922	0.000
3.05655	0.000
3.06387	0.079
3.07120	0.000
3.07853	0.000
3.08587	0.000
3.09320	0.119
3.10053	0.000
3.10787	4.243
3.11520	0.000
3.12253	0.000
3.12985	0.000
3.13718	0.198
3.14452	0.000
3.15185	0.000
3.15917	0.000
3.16650	0.000
3.17385	0.000
3.18117	0.119
3.18850	0.000
3.19583	0.000
3.20317	0.000
3.21050	0.000
3.21783	0.000
3.22515	0.000
3.23248	0.000
3.23980	0.000
3.24715	0.000
3.25447	0.278
3.26180	0.000
3.26913	0.000
3.27647	0.000
3.28380	0.000
3.29112	0.000
3.29843	0.000
3.30578	0.040
3.31312	0.000
3.32043	0.000
3.32777	0.000
3.33510	0.000
3.34243	0.000
3.34977	0.000
3.35710	0.000
3.36442	0.000
3.37175	0.000
3.37910	0.000
3.38642	0.000
3.39375	0.000
3.40108	0.000
3.40842	0.000
3.41575	0.000
3.42308	0.000
3.43042	0.079
3.43773	0.000
3.44507	0.000
3.45238	0.000
3.45972	0.000
3.46705	0.000
3.47438	0.000
3.48172	0.000
3.48905	0.000
3.49637	0.000
}
}
}
[FUNCTION]
{
Function	3
IonMode
Type	DAD 
Description	(210:600) 
[CHROMATOGRAM]
{
TraceNumber	7
Description	DAD: 254
ProcDesc
MaxIntensity	3142144.00
[TRACE]
{
0.00000	0.000
0.00167	-0.000
0.00333	-0.000
0.00500	-0.000
0.00667	-0.000
0.00833	-0.000
0.01000	-0.000
0.01167	-0.000
0.01333	-0.000
0.01500	-0.000
0.01667	0.000
0.01833	0.000
0.02000	0.001
0.02167	0.001
0.02333	0.001
0.02500	0.001
0.02667	0.001
0.02833	0.001
0.03000	0.001
0.03167	0.001
0.03333	0.001
0.03500	0.001
0.03667	0.001
0.03833	0.001
0.04000	0.002
0.04167	0.002
0.04333	0.002
0.04500	0.002
0.04667	0.002
0.04833	0.002
0.05000	0.002
0.05167	0.002
0.05333	0.002
0.05500	0.002
0.05667	0.001
0.05833	0.001
0.06000	0.001
0.06167	0.001
0.06333	0.001
0.06500	0.001
0.06667	0.001
0.06833	0.000
0.07000	0.000
0.07167	0.000
0.07333	0.000
0.07500	0.000
0.07667	0.000
0.07833	0.000
0.08000	0.000
0.08167	0.000
0.08333	0.000
0.08500	0.000
0.08667	0.000
0.08833	0.000
0.09000	0.000
0.09167	0.000
0.09333	0.000
0.09500	-0.000
0.09667	-0.000
0.09833	-0.000
0.10000	-0.000
0.10167	-0.001
0.10333	-0.001
0.10500	-0.000
0.10667	-0.001
0.10833	-0.000
0.11000	-0.000
0.11167	-0.000
0.11333	-0.000
0.11500	-0.000
0.11667	-0.000
0.11833	-0.000
0.12000	-0.000
0.12167	-0.001
0.12333	-0.001
0.12500	-0.001
0.12667	-0.001
0.12833	-0.001
0.13000	-0.001
0.13167	-0.001
0.13333	-0.001
0.13500	-0.001
0.13667	-0.001
0.13833	-0.001
0.14000	-0.001
0.14167	-0.001
0.14333	-0.001
0.14500	-0.001
0.14667	-0.001
0.14833	-0.001
0.15000	-0.001
0.15167	-0.001
0.15333	-0.001
0.15500	-0.001
0.15667	-0.001
0.15833	-0.001
0.16000	-0.000
0.16167	-0.000
0.16333	-0.000
0.16500	-0.001
0.16667	-0.001
0.16833	-0.001
0.17000	-0.001
0.17167	-0.001
0.17333	-0.001
0.17500	-0.001
0.17667	-0.001
0.17833	-0.001
0.18000	-0.001
0.18167	-0.001
0.18333	-0.001
0.18500	-0.001
0.18667	-0.001
0.18833	-0.001
0.19000	-0.001
0.19167	-0.001
0.19333	-0.001
0.19500	-0.001
0.19667	-0.001
0.19833	-0.001
0.20000	-0.001
0.20167	-0.001
0.20333	-0.001
0.20500	-0.001
0.20667	-0.001
0.20833	-0.001
0.21000	-0.001
0.21167	-0.001
0.21333	-0.001
0.21500	-0.001
0.21667	-0.001
0.21833	-0.001
0.22000	-0.001
0.22167	-0.000
0.22333	0.000
0.22500	0.001
0.22667	0.001
0.22833	0.002
0.23000	0.003
0.23167	0.004
0.23333	0.005
0.23500	0.005
0.23667	0.005
0.23833	0.004
0.24000	0.003
0.24167	0.003
0.24333	0.002
0.24500	0.002
0.24667	0.002
0.24833	0.002
0.25000	0.003
0.25167	0.004
0.25333	0.005
0.25500	0.007
0.25667	0.008
0.25833	0.010
0.26000	0.011
0.26167	0.012
0.26333	0.012
0.26500	0.012
0.26667	0.010
0.26833	0.006
0.27000	0.001
0.27167	-0.005
0.27333	-0.013
0.27500	-0.021
0.27667	-0.029
0.27833	-0.037
0.28000	-0.044
0.28167	-0.050
0.28333	-0.054
0.28500	-0.057
0.28667	-0.059
0.28833	-0.061
0.29000	-0.062
0.29167	-0.064
0.29333	-0.064
0.29500	-0.063
0.29667	-0.060
0.29833	-0.050
0.30000	-0.028
0.30167	0.021
0.30333	0.123
0.30500	0.328
0.30667	0.777
0.30833	1.989
0.31000	5.198
0.31167	11.852
0.31333	22.472
0.31500	36.836
0.31667	53.884
0.31833	71.085
0.32000	85.449
0.32167	95.348
0.32333	100.000
0.32500	99.340
0.32667	94.256
0.32833	86.019
0.33000	75.933
0.33167	65.466
0.33333	55.728
0.33500	47.409
0.33667	40.950
0.33833	36.258
0.34000	32.830
0.34167	30.267
0.34333	28.324
0.34500	26.845
0.34667	25.699
0.34833	24.762
0.35000	23.929
0.35167	23.120
0.35333	22.275
0.35500	21.356
0.35667	20.344
0.35833	19.228
0.36000	18.022
0.36167	16.747
0.36333	15.441
0.36500	14.141
0.36667	12.886
0.36833	11.708
0.37000	10.627
0.37167	9.654
0.37333	8.790
0.37500	8.033
0.37667	7.375
0.37833	6.807
0.38000	6.319
0.38167	5.904
0.38333	5.551
0.38500	5.254
0.38667	5.003
0.38833	4.793
0.39000	4.616
0.39167	4.466
0.39333	4.338
0.39500	4.229
0.39667	4.136
0.39833	4.056
0.40000	3.987
0.40167	3.928
0.40333	3.878
0.40500	3.836
0.40667	3.801
0.40833	3.772
0.41000	3.750
0.41167	3.733
0.41333	3.723
0.41500	3.719
0.41667	3.724
0.41833	3.740
0.42000	3.772
0.42167	3.822
0.42333	3.897
0.42500	3.999
0.42667	4.130
0.42833	4.284
0.43000	4.454
0.43167	4.626
0.43333	4.781
0.43500	4.904
0.43667	4.976
0.43833	4.991
0.44000	4.942
0.44167	4.836
0.44333	4.681
0.44500	4.491
0.44667	4.278
0.44833	4.056
0.45000	3.835
0.45167	3.622
0.45333	3.421
0.45500	3.234
0.45667	3.062
0.45833	2.905
0.46000	2.761
0.46167	2.630
0.46333	2.510
0.46500	2.401
0.46667	2.300
0.46833	2.207
0.47000	2.121
0.47167	2.041
0.47333	1.967
0.47500	1.897
0.47667	1.832
0.47833	1.770
0.48000	1.711
0.48167	1.656
0.48333	1.603
0.48500	1.552
0.48667	1.503
0.48833	1.456
0.49000	1.411
0.49167	1.366
0.49333	1.323
0.49500	1.282
0.49667	1.241
0.49833	1.201
0.50000	1.163
0.50167	1.125
0.50333	1.088
0.50500	1.052
0.50667	1.017
0.50833	0.982
0.51000	0.949
0.51167	0.916
0.51333	0.884
0.51500	0.853
0.51667	0.824
0.51833	0.795
0.52000	0.772
0.52167	0.754
0.52333	0.742
0.52500	0.736
0.52667	0.736
0.52833	0.733
0.53000	0.727
0.53167	0.718
0.53333	0.704
0.53500	0.687
0.53667	0.669
0.53833	0.651
0.54000	0.634
0.54167	0.619
0.54333	0.604
0.54500	0.590
0.54667	0.577
0.54833	0.565
0.55000	0.552
0.55167	0.539
0.55333	0.526
0.55500	0.513
0.55667	0.502
0.55833	0.491
0.56000	0.481
0.56167	0.472
0.56333	0.464
0.56500	0.457
0.56667	0.450
0.56833	0.445
0.57000	0.440
0.57167	0.435
0.57333	0.431
0.57500	0.427
0.57667	0.423
0.57833	0.420
0.58000	0.417
0.58167	0.414
0.58333	0.411
0.58500	0.408
0.58667	0.405
0.58833	0.403
0.59000	0.401
0.59167	0.399
0.59333	0.397
0.59500	0.395
0.59667	0.393
0.59833	0.392
0.60000	0.390
0.60167	0.389
0.60333	0.388
0.60500	0.387
0.60667	0.386
0.60833	0.385
0.61000	0.385
0.61167	0.384
0.61333	0.384
0.61500	0.383
0.61667	0.383
0.61833	0.383
0.62000	0.384
0.62167	0.384
0.62333	0.384
0.62500	0.385
0.62667	0.386
0.62833	0.387
0.63000	0.388
0.63167	0.389
0.63333	0.390
0.63500	0.390
0.63667	0.391
0.63833	0.392
0.64000	0.393
0.64167	0.393
0.64333	0.393
0.64500	0.393
0.64667	0.392
0.64833	0.391
0.65000	0.390
0.65167	0.389
0.65333	0.388
0.65500	0.386
0.65667	0.384
0.65833	0.383
0.66000	0.381
0.66167	0.379
0.66333	0.377
0.66500	0.375
0.66667	0.374
0.66833	0.372
0.67000	0.370
0.67167	0.368
0.67333	0.366
0.67500	0.364
0.67667	0.362
0.67833	0.360
0.68000	0.358
0.68167	0.357
0.68333	0.355
0.68500	0.353
0.68667	0.351
0.68833	0.349
0.69000	0.348
0.69167	0.346
0.69333	0.345
0.69500	0.343
0.69667	0.341
0.69833	0.340
0.70000	0.339
0.70167	0.337
0.70333	0.336
0.70500	0.335
0.70667	0.333
0.70833	0.332
0.71000	0.331
0.71167	0.330
0.71333	0.329
0.71500	0.328
0.71667	0.327
0.71833	0.326
0.72000	0.325
0.72167	0.324
0.72333	0.324
0.72500	0.323
0.72667	0.322
0.72833	0.322
0.73000	0.321
0.73167	0.321
0.73333	0.321
0.73500	0.320
0.73667	0.320
0.73833	0.319
0.74000	0.319
0.74167	0.319
0.74333	0.319
0.74500	0.318
0.74667	0.318
0.74833	0.318
0.75000	0.318
0.75167	0.318
0.75333	0.317
0.75500	0.317
0.75667	0.317
0.75833	0.317
0.76000	0.317
0.76167	0.317
0.76333	0.317
0.76500	0.317
0.76667	0.317
0.76833	0.317
0.77000	0.317
0.77167	0.317
0.77333	0.317
0.77500	0.317
0.77667	0.317
0.77833	0.317
0.78000	0.317
0.78167	0.317
0.78333	0.317
0.78500	0.317
0.78667	0.317
0.78833	0.317
0.79000	0.317
0.79167	0.317
0.79333	0.317
0.79500	0.318
0.79667	0.318
0.79833	0.318
0.80000	0.318
0.80167	0.318
0.80333	0.318
0.80500	0.319
0.80667	0.319
0.80833	0.319
0.81000	0.319
0.81167	0.319
0.81333	0.319
0.81500	0.319
0.81667	0.320
0.81833	0.320
0.82000	0.320
0.82167	0.320
0.82333	0.321
0.82500	0.321
0.82667	0.321
0.82833	0.322
0.83000	0.322
0.83167	0.322
0.83333	0.323
0.83500	0.323
0.83667	0.323
0.83833	0.324
0.84000	0.324
0.84167	0.324
0.84333	0.325
0.84500	0.325
0.84667	0.326
0.84833	0.326
0.85000	0.327
0.85167	0.327
0.85333	0.328
0.85500	0.328
0.85667	0.329
0.85833	0.329
0.86000	0.330
0.86167	0.331
0.86333	0.331
0.86500	0.332
0.86667	0.333
0.86833	0.333
0.87000	0.334
0.87167	0.334
0.87333	0.335
0.87500	0.336
0.87667	0.336
0.87833	0.337
0.88000	0.337
0.88167	0.338
0.88333	0.339
0.88500	0.340
0.88667	0.340
0.88833	0.341
0.89000	0.342
0.89167	0.343
0.89333	0.343
0.89500	0.344
0.89667	0.345
0.89833	0.346
0.90000	0.347
0.90167	0.348
0.90333	0.348
0.90500	0.349
0.90667	0.350
0.90833	0.351
0.91000	0.352
0.91167	0.353
0.91333	0.354
0.91500	0.355
0.91667	0.357
0.91833	0.358
0.92000	0.359
0.92167	0.360
0.92333	0.361
0.92500	0.363
0.92667	0.364
0.92833	0.365
0.93000	0.366
0.93167	0.367
0.93333	0.369
0.93500	0.370
0.93667	0.371
0.93833	0.373
0.94000	0.374
0.94167	0.376
0.94333	0.378
0.94500	0.379
0.94667	0.381
0.94833	0.383
0.95000	0.384
0.95167	0.386
0.95333	0.388
0.95500	0.389
0.95667	0.391
0.95833	0.393
0.96000	0.395
0.96167	0.397
0.96333	0.399
0.96500	0.400
0.96667	0.402
0.96833	0.405
0.97000	0.407
0.97167	0.409
0.97333	0.411
0.97500	0.413
0.97667	0.416
0.97833	0.418
0.98000	0.420
0.98167	0.423
0.98333	0.425
0.98500	0.428
0.98667	0.430
0.98833	0.433
0.99000	0.436
0.99167	0.438
0.99333	0.441
0.99500	0.444
0.99667	0.447
0.99833	0.450
1.00000	0.453
1.00167	0.456
1.00333	0.459
1.00500	0.463
1.00667	0.466
1.00833	0.470
1.01000	0.473
1.01167	0.477
1.01333	0.481
1.01500	0.485
1.01667	0.489
1.01833	0.494
1.02000	0.498
1.02167	0.502
1.02333	0.507
1.02500	0.511
1.02667	0.516
1.02833	0.521
1.03000	0.526
1.03167	0.531
1.03333	0.537
1.03500	0.542
1.03667	0.548
1.03833	0.553
1.04000	0.559
1.04167	0.566
1.04333	0.572
1.04500	0.578
1.04667	0.585
1.04833	0.592
1.05000	0.598
1.05167	0.606
1.05333	0.613
1.05500	0.621
1.05667	0.629
1.05833	0.637
1.06000	0.645
1.06167	0.654
1.06333	0.663
1.06500	0.672
1.06667	0.682
1.06833	0.692
1.07000	0.702
1.07167	0.712
1.07333	0.723
1.07500	0.734
1.07667	0.746
1.07833	0.758
1.08000	0.771
1.08167	0.784
1.08333	0.797
1.08500	0.811
1.08667	0.826
1.08833	0.841
1.09000	0.857
1.09167	0.874
1.09333	0.891
1.09500	0.909
1.09667	0.927
1.09833	0.946
1.10000	0.967
1.10167	0.988
1.10333	1.010
1.10500	1.033
1.10667	1.057
1.10833	1.082
1.11000	1.109
1.11167	1.136
1.11333	1.165
1.11500	1.195
1.11667	1.228
1.11833	1.261
1.12000	1.297
1.12167	1.335
1.12333	1.375
1.12500	1.417
1.12667	1.461
1.12833	1.508
1.13000	1.558
1.13167	1.610
1.13333	1.666
1.13500	1.726
1.13667	1.791
1.13833	1.862
1.14000	1.940
1.14167	2.028
1.14333	2.131
1.14500	2.256
1.14667	2.413
1.14833	2.618
1.15000	2.892
1.15167	3.255
1.15333	3.725
1.15500	4.311
1.15667	5.001
1.15833	5.763
1.16000	6.537
1.16167	7.247
1.16333	7.810
1.16500	8.152
1.16667	8.225
1.16833	8.018
1.17000	7.559
1.17167	6.908
1.17333	6.145
1.17500	5.350
1.17667	4.592
1.17833	3.916
1.18000	3.347
1.18167	2.887
1.18333	2.527
1.18500	2.252
1.18667	2.042
1.18833	1.882
1.19000	1.759
1.19167	1.661
1.19333	1.583
1.19500	1.518
1.19667	1.462
1.19833	1.414
1.20000	1.373
1.20167	1.336
1.20333	1.302
1.20500	1.272
1.20667	1.244
1.20833	1.219
1.21000	1.194
1.21167	1.172
1.21333	1.150
1.21500	1.129
1.21667	1.108
1.21833	1.088
1.22000	1.067
1.22167	1.047
1.22333	1.026
1.22500	1.005
1.22667	0.984
1.22833	0.962
1.23000	0.940
1.23167	0.918
1.23333	0.896
1.23500	0.873
1.23667	0.851
1.23833	0.830
1.24000	0.809
1.24167	0.789
1.24333	0.769
1.24500	0.751
1.24667	0.734
1.24833	0.718
1.25000	0.704
1.25167	0.691
1.25333	0.680
1.25500	0.670
1.25667	0.662
1.25833	0.654
1.26000	0.649
1.26167	0.644
1.26333	0.641
1.26500	0.638
1.26667	0.635
1.26833	0.633
1.27000	0.630
1.27167	0.627
1.27333	0.622
1.27500	0.617
1.27667	0.611
1.27833	0.605
1.28000	0.598
1.28167	0.589
1.28333	0.580
1.28500	0.568
1.28667	0.555
1.28833	0.541
1.29000	0.526
1.29167	0.512
1.29333	0.499
1.29500	0.487
1.29667	0.478
1.29833	0.471
1.30000	0.465
1.30167	0.460
1.30333	0.456
1.30500	0.452
1.30667	0.450
1.30833	0.447
1.31000	0.446
1.31167	0.445
1.31333	0.444
1.31500	0.444
1.31667	0.444
1.31833	0.444
1.32000	0.445
1.32167	0.448
1.32333	0.454
1.32500	0.466
1.32667	0.486
1.32833	0.515
1.33000	0.554
1.33167	0.600
1.33333	0.647
1.33500	0.689
1.33667	0.718
1.33833	0.731
1.34000	0.728
1.34167	0.710
1.34333	0.686
1.34500	0.662
1.34667	0.642
1.34833	0.629
1.35000	0.621
1.35167	0.614
1.35333	0.604
1.35500	0.588
1.35667	0.566
1.35833	0.540
1.36000	0.512
1.36167	0.487
1.36333	0.468
1.36500	0.457
1.36667	0.455
1.36833	0.462
1.37000	0.476
1.37167	0.497
1.37333	0.522
1.37500	0.546
1.37667	0.568
1.37833	0.585
1.38000	0.595
1.38167	0.597
1.38333	0.594
1.38500	0.587
1.38667	0.578
1.38833	0.571
1.39000	0.568
1.39167	0.572
1.39333	0.583
1.39500	0.600
1.39667	0.621
1.39833	0.640
1.40000	0.653
1.40167	0.654
1.40333	0.641
1.40500	0.615
1.40667	0.580
1.40833	0.539
1.41000	0.498
1.41167	0.462
1.41333	0.433
1.41500	0.412
1.41667	0.398
1.41833	0.390
1.42000	0.388
1.42167	0.391
1.42333	0.397
1.42500	0.406
1.42667	0.416
1.42833	0.426
1.43000	0.436
1.43167	0.445
1.43333	0.452
1.43500	0.459
1.43667	0.466
1.43833	0.472
1.44000	0.479
1.44167	0.486
1.44333	0.492
1.44500	0.498
1.44667	0.502
1.44833	0.504
1.45000	0.504
1.45167	0.502
1.45333	0.499
1.45500	0.496
1.45667	0.493
1.45833	0.491
1.46000	0.490
1.46167	0.491
1.46333	0.493
1.46500	0.498
1.46667	0.511
1.46833	0.540
1.47000	0.603
1.47167	0.722
1.47333	0.921
1.47500	1.224
1.47667	1.639
1.47833	2.155
1.48000	2.739
1.48167	3.336
1.48333	3.876
1.48500	4.288
1.48667	4.517
1.48833	4.537
1.49000	4.355
1.49167	4.011
1.49333	3.565
1.49500	3.083
1.49667	2.618
1.49833	2.210
1.50000	1.875
1.50167	1.615
1.50333	1.421
1.50500	1.281
1.50667	1.184
1.50833	1.117
1.51000	1.073
1.51167	1.044
1.51333	1.024
1.51500	1.009
1.51667	0.994
1.51833	0.978
1.52000	0.961
1.52167	0.944
1.52333	0.932
1.52500	0.926
1.52667	0.930
1.52833	0.944
1.53000	0.968
1.53167	0.998
1.53333	1.031
1.53500	1.063
1.53667	1.091
1.53833	1.114
1.54000	1.129
1.54167	1.140
1.54333	1.145
1.54500	1.147
1.54667	1.145
1.54833	1.139
1.55000	1.127
1.55167	1.110
1.55333	1.089
1.55500	1.067
1.55667	1.051
1.55833	1.046
1.56000	1.055
1.56167	1.079
1.56333	1.113
1.56500	1.151
1.56667	1.184
1.56833	1.205
1.57000	1.212
1.57167	1.206
1.57333	1.192
1.57500	1.178
1.57667	1.170
1.57833	1.169
1.58000	1.176
1.58167	1.191
1.58333	1.211
1.58500	1.234
1.58667	1.259
1.58833	1.288
1.59000	1.323
1.59167	1.365
1.59333	1.417
1.59500	1.478
1.59667	1.546
1.59833	1.616
1.60000	1.680
1.60167	1.732
1.60333	1.766
1.60500	1.780
1.60667	1.776
1.60833	1.760
1.61000	1.738
1.61167	1.717
1.61333	1.704
1.61500	1.701
1.61667	1.708
1.61833	1.723
1.62000	1.742
1.62167	1.763
1.62333	1.788
1.62500	1.826
1.62667	1.895
1.62833	2.009
1.63000	2.182
1.63167	2.409
1.63333	2.671
1.63500	2.937
1.63667	3.173
1.63833	3.357
1.64000	3.480
1.64167	3.550
1.64333	3.578
1.64500	3.574
1.64667	3.544
1.64833	3.489
1.65000	3.416
1.65167	3.334
1.65333	3.257
1.65500	3.200
1.65667	3.175
1.65833	3.183
1.66000	3.224
1.66167	3.290
1.66333	3.377
1.66500	3.488
1.66667	3.643
1.66833	3.886
1.67000	4.273
1.67167	4.856
1.67333	5.648
1.67500	6.598
1.67667	7.594
1.67833	8.492
1.68000	9.167
1.68167	9.569
1.68333	9.730
1.68500	9.743
1.68667	9.712
1.68833	9.698
1.69000	9.697
1.69167	9.657
1.69333	9.512
1.69500	9.227
1.69667	8.811
1.69833	8.321
1.70000	7.838
1.70167	7.433
1.70333	7.155
1.70500	7.010
1.70667	6.963
1.70833	6.951
1.71000	6.907
1.71167	6.779
1.71333	6.552
1.71500	6.256
1.71667	5.954
1.71833	5.739
1.72000	5.701
1.72167	5.903
1.72333	6.353
1.72500	6.991
1.72667	7.695
1.72833	8.303
1.73000	8.669
1.73167	8.703
1.73333	8.396
1.73500	7.817
1.73667	7.085
1.73833	6.324
1.74000	5.634
1.74167	5.071
1.74333	4.658
1.74500	4.394
1.74667	4.276
1.74833	4.303
1.75000	4.475
1.75167	4.788
1.75333	5.224
1.75500	5.771
1.75667	6.443
1.75833	7.320
1.76000	8.571
1.76167	10.434
1.76333	13.126
1.76500	16.708
1.76667	20.979
1.76833	25.436
1.77000	29.357
1.77167	32.013
1.77333	32.899
1.77500	31.899
1.77667	29.308
1.77833	25.717
1.78000	21.792
1.78167	18.093
1.78333	14.962
1.78500	12.518
1.78667	10.717
1.78833	9.441
1.79000	8.565
1.79167	7.981
1.79333	7.603
1.79500	7.361
1.79667	7.193
1.79833	7.051
1.80000	6.905
1.80167	6.741
1.80333	6.563
1.80500	6.382
1.80667	6.218
1.80833	6.083
1.81000	5.987
1.81167	5.933
1.81333	5.916
1.81500	5.929
1.81667	5.957
1.81833	5.988
1.82000	6.011
1.82167	6.017
1.82333	6.003
1.82500	5.971
1.82667	5.928
1.82833	5.882
1.83000	5.841
1.83167	5.815
1.83333	5.810
1.83500	5.836
1.83667	5.900
1.83833	6.006
1.84000	6.155
1.84167	6.338
1.84333	6.535
1.84500	6.722
1.84667	6.868
1.84833	6.950
1.85000	6.953
1.85167	6.874
1.85333	6.726
1.85500	6.531
1.85667	6.315
1.85833	6.103
1.86000	5.915
1.86167	5.763
1.86333	5.656
1.86500	5.597
1.86667	5.585
1.86833	5.618
1.87000	5.686
1.87167	5.774
1.87333	5.859
1.87500	5.920
1.87666	5.938
1.87833	5.911
1.88000	5.854
1.88166	5.802
1.88333	5.802
1.88500	5.894
1.88666	6.101
1.88833	6.408
1.89000	6.768
1.89166	7.109
1.89333	7.352
1.89500	7.447
1.89666	7.375
1.89833	7.160
1.90000	6.854
1.90166	6.518
1.90333	6.206
1.90500	5.947
1.90666	5.745
1.90833	5.591
1.91000	5.463
1.91166	5.342
1.91333	5.214
1.91500	5.078
1.91666	4.937
1.91833	4.799
1.92000	4.674
1.92166	4.569
1.92333	4.487
1.92500	4.424
1.92666	4.377
1.92833	4.339
1.93000	4.305
1.93166	4.275
1.93333	4.255
1.93500	4.253
1.93666	4.284
1.93833	4.365
1.94000	4.510
1.94166	4.727
1.94333	5.013
1.94500	5.347
1.94666	5.693
1.94833	6.004
1.95000	6.230
1.95166	6.334
1.95333	6.295
1.95500	6.120
1.95666	5.834
1.95833	5.479
1.96000	5.098
1.96166	4.732
1.96333	4.405
1.96500	4.132
1.96666	3.914
1.96833	3.743
1.97000	3.611
1.97166	3.510
1.97333	3.433
1.97500	3.375
1.97666	3.330
1.97833	3.296
1.98000	3.269
1.98166	3.244
1.98333	3.219
1.98500	3.192
1.98666	3.161
1.98833	3.125
1.99000	3.086
1.99166	3.047
1.99333	3.013
1.99500	2.992
1.99666	2.992
1.99833	3.020
2.00000	3.080
2.00166	3.170
2.00333	3.281
2.00500	3.399
2.00667	3.509
2.00833	3.598
2.01000	3.658
2.01167	3.687
2.01333	3.688
2.01500	3.666
2.01667	3.630
2.01833	3.586
2.02000	3.543
2.02167	3.511
2.02333	3.495
2.02500	3.504
2.02667	3.537
2.02833	3.591
2.03000	3.659
2.03167	3.729
2.03333	3.794
2.03500	3.848
2.03667	3.890
2.03833	3.923
2.04000	3.950
2.04167	3.975
2.04333	3.996
2.04500	4.009
2.04667	4.009
2.04833	3.995
2.05000	3.971
2.05167	3.946
2.05334	3.935
2.05500	3.952
2.05667	4.008
2.05834	4.104
2.06000	4.230
2.06167	4.372
2.06334	4.510
2.06500	4.626
2.06667	4.709
2.06834	4.755
2.07000	4.766
2.07167	4.742
2.07334	4.687
2.07500	4.603
2.07667	4.489
2.07834	4.347
2.08000	4.178
2.08167	3.991
2.08334	3.795
2.08500	3.602
2.08667	3.424
2.08834	3.267
2.09000	3.138
2.09167	3.034
2.09334	2.953
2.09500	2.888
2.09667	2.832
2.09834	2.780
2.10001	2.728
2.10167	2.673
2.10334	2.615
2.10501	2.555
2.10667	2.497
2.10834	2.442
2.11001	2.393
2.11167	2.353
2.11334	2.323
2.11501	2.309
2.11667	2.319
2.11834	2.367
2.12001	2.483
2.12167	2.714
2.12334	3.132
2.12501	3.825
2.12667	4.876
2.12834	6.332
2.13001	8.174
2.13167	10.286
2.13334	12.470
2.13501	14.472
2.13667	16.044
2.13834	16.999
2.14001	17.258
2.14167	16.855
2.14334	15.928
2.14501	14.661
2.14668	13.243
2.14834	11.827
2.15001	10.515
2.15168	9.350
2.15334	8.342
2.15501	7.478
2.15668	6.738
2.15834	6.106
2.16001	5.571
2.16168	5.119
2.16334	4.739
2.16501	4.420
2.16668	4.147
2.16834	3.908
2.17001	3.693
2.17168	3.498
2.17334	3.318
2.17501	3.156
2.17668	3.010
2.17834	2.885
2.18001	2.780
2.18168	2.697
2.18334	2.635
2.18501	2.589
2.18668	2.557
2.18834	2.534
2.19001	2.513
2.19168	2.492
2.19335	2.467
2.19501	2.437
2.19668	2.403
2.19835	2.369
2.20001	2.340
2.20168	2.324
2.20335	2.325
2.20501	2.349
2.20668	2.397
2.20835	2.465
2.21001	2.546
2.21168	2.629
2.21335	2.705
2.21501	2.763
2.21668	2.800
2.21835	2.817
2.22001	2.818
2.22168	2.815
2.22335	2.819
2.22501	2.846
2.22668	2.908
2.22835	3.013
2.23001	3.168
2.23168	3.367
2.23335	3.601
2.23501	3.849
2.23668	4.084
2.23835	4.281
2.24002	4.415
2.24168	4.474
2.24335	4.458
2.24502	4.377
2.24668	4.251
2.24835	4.104
2.25002	3.959
2.25168	3.828
2.25335	3.722
2.25502	3.638
2.25668	3.575
2.25835	3.525
2.26002	3.484
2.26168	3.448
2.26335	3.414
2.26502	3.380
2.26668	3.346
2.26835	3.307
2.27002	3.263
2.27168	3.213
2.27335	3.157
2.27502	3.099
2.27668	3.043
2.27835	2.994
2.28002	2.960
2.28168	2.943
2.28335	2.948
2.28502	2.974
2.28668	3.022
2.28835	3.091
2.29002	3.179
2.29169	3.286
2.29335	3.411
2.29502	3.559
2.29669	3.738
2.29835	3.963
2.30002	4.256
2.30169	4.649
2.30335	5.177
2.30502	5.876
2.30669	6.784
2.30835	7.928
2.31002	9.326
2.31169	10.970
2.31335	12.825
2.31502	14.815
2.31669	16.816
2.31835	18.663
2.32002	20.171
2.32169	21.169
2.32335	21.533
2.32502	21.228
2.32669	20.303
2.32835	18.900
2.33002	17.203
2.33169	15.412
2.33335	13.695
2.33502	12.172
2.33669	10.904
2.33836	9.902
2.34002	9.140
2.34169	8.578
2.34336	8.173
2.34502	7.888
2.34669	7.699
2.34836	7.596
2.35002	7.581
2.35169	7.662
2.35336	7.859
2.35502	8.191
2.35669	8.675
2.35836	9.324
2.36002	10.141
2.36169	11.121
2.36336	12.254
2.36502	13.527
2.36669	14.928
2.36836	16.449
2.37002	18.093
2.37169	19.871
2.37336	21.802
2.37502	23.910
2.37669	26.222
2.37836	28.758
2.38002	31.536
2.38169	34.569
2.38336	37.856
2.38503	41.396
2.38669	45.189
2.38836	49.224
2.39003	53.491
2.39169	57.974
2.39336	62.651
2.39503	67.468
2.39669	72.340
2.39836	77.171
2.40003	81.807
2.40169	85.995
2.40336	89.514
2.40503	92.089
2.40669	93.319
2.40836	92.814
2.41003	90.386
2.41169	85.873
2.41336	79.379
2.41503	71.403
2.41669	62.665
2.41836	53.903
2.42003	45.804
2.42169	38.824
2.42336	33.129
2.42503	28.654
2.42669	25.208
2.42836	22.566
2.43003	20.523
2.43170	18.914
2.43336	17.610
2.43503	16.513
2.43670	15.553
2.43836	14.681
2.44003	13.867
2.44170	13.094
2.44336	12.352
2.44503	11.638
2.44670	10.953
2.44836	10.299
2.45003	9.679
2.45170	9.096
2.45336	8.553
2.45503	8.051
2.45670	7.589
2.45836	7.168
2.46003	6.785
2.46170	6.439
2.46336	6.130
2.46503	5.857
2.46670	5.621
2.46836	5.421
2.47003	5.259
2.47170	5.132
2.47336	5.040
2.47503	4.975
2.47670	4.932
2.47837	4.899
2.48003	4.866
2.48170	4.823
2.48337	4.762
2.48503	4.678
2.48670	4.569
2.48837	4.437
2.49003	4.287
2.49170	4.126
2.49337	3.961
2.49503	3.797
2.49670	3.642
2.49837	3.497
2.50003	3.366
2.50170	3.249
2.50337	3.146
2.50503	3.055
2.50670	2.975
2.50837	2.906
2.51003	2.846
2.51170	2.796
2.51337	2.755
2.51503	2.725
2.51670	2.707
2.51837	2.705
2.52003	2.720
2.52170	2.756
2.52337	2.815
2.52504	2.897
2.52670	3.000
2.52837	3.117
2.53004	3.240
2.53170	3.357
2.53337	3.456
2.53504	3.525
2.53670	3.558
2.53837	3.549
2.54004	3.501
2.54170	3.419
2.54337	3.310
2.54504	3.185
2.54670	3.053
2.54837	2.923
2.55004	2.803
2.55170	2.695
2.55337	2.603
2.55504	2.527
2.55670	2.465
2.55837	2.414
2.56004	2.372
2.56170	2.336
2.56337	2.304
2.56504	2.274
2.56670	2.244
2.56837	2.214
2.57004	2.182
2.57171	2.151
2.57337	2.119
2.57504	2.088
2.57671	2.057
2.57837	2.028
2.58004	1.999
2.58171	1.972
2.58337	1.947
2.58504	1.923
2.58671	1.901
2.58837	1.882
2.59004	1.865
2.59171	1.852
2.59337	1.844
2.59504	1.841
2.59671	1.845
2.59837	1.856
2.60004	1.877
2.60171	1.908
2.60337	1.950
2.60504	2.004
2.60671	2.070
2.60837	2.146
2.61004	2.231
2.61171	2.321
2.61337	2.412
2.61504	2.500
2.61671	2.580
2.61838	2.648
2.62004	2.700
2.62171	2.734
2.62338	2.749
2.62504	2.745
2.62671	2.724
2.62838	2.690
2.63004	2.645
2.63171	2.594
2.63338	2.541
2.63504	2.490
2.63671	2.444
2.63838	2.405
2.64004	2.374
2.64171	2.350
2.64338	2.333
2.64504	2.320
2.64671	2.308
2.64838	2.294
2.65004	2.275
2.65171	2.249
2.65338	2.214
2.65504	2.171
2.65671	2.120
2.65838	2.063
2.66004	2.001
2.66171	1.938
2.66338	1.874
2.66505	1.812
2.66671	1.754
2.66838	1.700
2.67005	1.652
2.67171	1.609
2.67338	1.572
2.67505	1.540
2.67671	1.513
2.67838	1.490
2.68005	1.472
2.68171	1.457
2.68338	1.445
2.68505	1.436
2.68671	1.428
2.68838	1.423
2.69005	1.418
2.69171	1.413
2.69338	1.409
2.69505	1.404
2.69671	1.398
2.69838	1.392
2.70005	1.384
2.70171	1.375
2.70338	1.365
2.70505	1.354
2.70671	1.343
2.70838	1.332
2.71005	1.320
2.71171	1.310
2.71338	1.300
2.71505	1.291
2.71672	1.283
2.71838	1.277
2.72005	1.272
2.72172	1.268
2.72338	1.266
2.72505	1.265
2.72672	1.264
2.72838	1.265
2.73005	1.266
2.73172	1.268
2.73338	1.269
2.73505	1.271
2.73672	1.272
2.73838	1.273
2.74005	1.273
2.74172	1.273
2.74338	1.272
2.74505	1.271
2.74672	1.270
2.74838	1.268
2.75005	1.268
2.75172	1.267
2.75338	1.267
2.75505	1.267
2.75672	1.268
2.75838	1.268
2.76005	1.269
2.76172	1.268
2.76339	1.267
2.76505	1.265
2.76672	1.261
2.76839	1.256
2.77005	1.250
2.77172	1.243
2.77339	1.235
2.77505	1.226
2.77672	1.217
2.77839	1.208
2.78005	1.198
2.78172	1.189
2.78339	1.181
2.78505	1.173
2.78672	1.165
2.78839	1.159
2.79005	1.153
2.79172	1.149
2.79339	1.144
2.79505	1.141
2.79672	1.138
2.79839	1.135
2.80005	1.133
2.80172	1.132
2.80339	1.130
2.80505	1.129
2.80672	1.128
2.80839	1.127
2.81006	1.126
2.81172	1.126
2.81339	1.125
2.81506	1.125
2.81672	1.125
2.81839	1.125
2.82006	1.126
2.82172	1.127
2.82339	1.129
2.82506	1.130
2.82672	1.132
2.82839	1.135
2.83006	1.137
2.83172	1.139
2.83339	1.141
2.83506	1.143
2.83672	1.144
2.83839	1.146
2.84006	1.148
2.84172	1.151
2.84339	1.154
2.84506	1.157
2.84672	1.161
2.84839	1.165
2.85006	1.170
2.85172	1.174
2.85339	1.179
2.85506	1.183
2.85673	1.187
2.85839	1.189
2.86006	1.191
2.86173	1.191
2.86339	1.191
2.86506	1.190
2.86673	1.188
2.86839	1.188
2.87006	1.187
2.87173	1.188
2.87339	1.190
2.87506	1.193
2.87673	1.199
2.87839	1.205
2.88006	1.213
2.88173	1.222
2.88339	1.232
2.88506	1.241
2.88673	1.249
2.88839	1.255
2.89006	1.260
2.89173	1.261
2.89339	1.261
2.89506	1.257
2.89673	1.251
2.89839	1.242
2.90006	1.232
2.90173	1.220
2.90340	1.207
2.90506	1.193
2.90673	1.179
2.90840	1.165
2.91006	1.151
2.91173	1.137
2.91340	1.124
2.91506	1.111
2.91673	1.099
2.91840	1.088
2.92006	1.077
2.92173	1.066
2.92340	1.056
2.92506	1.046
2.92673	1.036
2.92840	1.026
2.93006	1.016
2.93173	1.006
2.93340	0.997
2.93506	0.987
2.93673	0.978
2.93840	0.969
2.94006	0.960
2.94173	0.951
2.94340	0.942
2.94506	0.933
2.94673	0.925
2.94840	0.916
2.95007	0.908
2.95173	0.900
2.95340	0.893
2.95507	0.885
2.95673	0.878
2.95840	0.870
2.96007	0.863
2.96173	0.856
2.96340	0.849
2.96507	0.843
2.96673	0.836
2.96840	0.830
2.97007	0.823
2.97173	0.817
2.97340	0.811
2.97507	0.805
2.97673	0.799
2.97840	0.793
2.98007	0.788
2.98173	0.783
2.98340	0.778
2.98507	0.773
2.98673	0.768
2.98840	0.764
2.99007	0.759
2.99173	0.755
2.99340	0.751
2.99507	0.747
2.99674	0.744
2.99840	0.741
3.00007	0.737
3.00174	0.734
3.00340	0.731
3.00507	0.728
3.00674	0.725
3.00840	0.722
3.01007	0.719
3.01174	0.716
3.01340	0.713
3.01507	0.710
3.01674	0.707
3.01840	0.703
3.02007	0.700
3.02174	0.697
3.02340	0.693
3.02507	0.689
3.02674	0.684
3.02840	0.679
3.03007	0.674
3.03174	0.668
3.03340	0.662
3.03507	0.655
3.03674	0.647
3.03840	0.639
3.04007	0.631
3.04174	0.622
3.04341	0.612
3.04507	0.602
3.04674	0.592
3.04841	0.581
3.05007	0.571
3.05174	0.560
3.05341	0.549
3.05507	0.538
3.05674	0.528
3.05841	0.518
3.06007	0.508
3.06174	0.499
3.06341	0.490
3.06507	0.481
3.06674	0.473
3.06841	0.465
3.07007	0.457
3.07174	0.450
3.07341	0.443
3.07507	0.436
3.07674	0.429
3.07841	0.423
3.08007	0.416
3.08174	0.410
3.08341	0.404
3.08507	0.399
3.08674	0.393
3.08841	0.388
3.09008	0.383
3.09174	0.378
3.09341	0.372
3.09508	0.366
3.09674	0.361
3.09841	0.355
3.10008	0.349
3.10174	0.343
3.10341	0.338
3.10508	0.332
3.10674	0.327
3.10841	0.322
3.11008	0.317
3.11174	0.312
3.11341	0.308
3.11508	0.304
3.11674	0.299
3.11841	0.295
3.12008	0.292
3.12174	0.288
3.12341	0.284
3.12508	0.281
3.12674	0.278
3.12841	0.275
3.13008	0.272
3.13174	0.269
3.13341	0.267
3.13508	0.264
3.13674	0.262
3.13841	0.260
3.14008	0.257
3.14175	0.255
3.14341	0.254
3.14508	0.252
3.14675	0.251
3.14841	0.249
3.15008	0.248
3.15175	0.247
3.15341	0.246
3.15508	0.245
3.15675	0.244
3.15841	0.243
3.16008	0.243
3.16175	0.243
3.16341	0.243
3.16508	0.243
3.16675	0.243
3.16841	0.244
3.17008	0.244
3.17175	0.245
3.17341	0.246
3.17508	0.247
3.17675	0.248
3.17841	0.249
3.18008	0.250
3.18175	0.251
3.18341	0.253
3.18508	0.254
3.18675	0.255
3.18842	0.257
3.19008	0.258
3.19175	0.259
3.19342	0.261
3.19508	0.262
3.19675	0.264
3.19842	0.265
3.20008	0.267
3.20175	0.268
3.20342	0.270
3.20508	0.271
3.20675	0.273
3.20842	0.275
3.21008	0.277
3.21175	0.278
3.21342	0.280
3.21508	0.282
3.21675	0.284
3.21842	0.287
3.22008	0.289
3.22175	0.291
3.22342	0.294
3.22508	0.296
3.22675	0.299
3.22842	0.301
3.23008	0.304
3.23175	0.306
3.23342	0.309
3.23509	0.311
3.23675	0.313
3.23842	0.316
3.24009	0.318
3.24175	0.321
3.24342	0.323
3.24509	0.326
3.24675	0.328
3.24842	0.330
3.25009	0.333
3.25175	0.335
3.25342	0.337
3.25509	0.340
3.25675	0.342
3.25842	0.344
3.26009	0.346
3.26175	0.348
3.26342	0.350
3.26509	0.352
3.26675	0.354
3.26842	0.356
3.27009	0.358
3.27175	0.359
3.27342	0.361
3.27509	0.363
3.27675	0.365
3.27842	0.366
3.28009	0.368
3.28176	0.369
3.28342	0.371
3.28509	0.372
3.28676	0.373
3.28842	0.375
3.29009	0.376
3.29176	0.377
3.29342	0.378
3.29509	0.379
3.29676	0.380
3.29842	0.381
3.30009	0.382
3.30176	0.383
3.30342	0.384
3.30509	0.385
3.30676	0.385
3.30842	0.386
3.31009	0.386
3.31176	0.387
3.31342	0.388
3.31509	0.388
3.31676	0.389
3.31842	0.389
3.32009	0.389
3.32176	0.389
3.32342	0.389
3.32509	0.389
3.32676	0.389
3.32843	0.389
3.33009	0.390
3.33176	0.390
3.33343	0.390
3.33509	0.390
3.33676	0.390
3.33843	0.390
3.34009	0.390
3.34176	0.389
3.34343	0.389
3.34509	0.389
3.34676	0.389
3.34843	0.388
3.35009	0.388
3.35176	0.388
3.35343	0.387
3.35509	0.387
3.35676	0.386
3.35843	0.386
3.36009	0.385
3.36176	0.385
3.36343	0.384
3.36509	0.384
3.36676	0.383
3.36843	0.383
3.37009	0.382
3.37176	0.382
3.37343	0.381
3.37510	0.380
3.37676	0.380
3.37843	0.379
3.38010	0.378
3.38176	0.377
3.38343	0.376
3.38510	0.375
3.38676	0.375
3.38843	0.374
3.39010	0.373
3.39176	0.373
3.39343	0.372
3.39510	0.371
3.39676	0.371
3.39843	0.370
3.40010	0.369
3.40176	0.368
3.40343	0.367
3.40510	0.366
3.40676	0.365
3.40843	0.365
3.41010	0.364
3.41176	0.363
3.41343	0.362
3.41510	0.361
3.41676	0.360
3.41843	0.359
3.42010	0.358
3.42177	0.357
3.42343	0.356
3.42510	0.355
3.42677	0.354
3.42843	0.353
3.43010	0.352
3.43177	0.351
3.43343	0.350
3.43510	0.349
3.43677	0.348
3.43843	0.347
3.44010	0.346
3.44177	0.345
3.44343	0.344
3.44510	0.343
3.44677	0.342
3.44843	0.341
3.45010	0.340
3.45177	0.339
3.45343	0.338
3.45510	0.337
3.45677	0.336
3.45843	0.335
3.46010	0.334
3.46177	0.333
3.46343	0.331
3.46510	0.330
3.46677	0.329
3.46844	0.328
3.47010	0.327
3.47177	0.326
3.47344	0.325
3.47510	0.324
3.47677	0.323
3.47844	0.322
3.48010	0.321
3.48177	0.320
3.48344	0.319
3.48510	0.318
3.48677	0.317
3.48844	0.315
3.49010	0.314
3.49177	0.313
3.49344	0.312
3.49510	0.311
3.49677	0.310
3.49844	0.309
3.50010	0.308
}
[PEAK]
{
Peak ID	1
Peak Ref	36
Time	0.3233
Peak	0.3017	0.4150
Intensity	660.00	116856.00
Height	3119270.00
AreaAbs	78223.2891
Area %BP	69.05
Area %Total	33.54
Width	0.11
Response Test	0
}
[PEAK]
{
Peak ID	4
Peak Ref	37
Time	1.7733
Peak	1.7483	1.8133
Intensity	135200.00	185904.00
Height	879026.38
AreaAbs	15731.1055
Area %BP	13.89
Area %Total	6.75
Width	0.06
Response Test	0
}
[PEAK]
{
Peak ID	11
Peak Ref	38
Time	2.1400
Peak	2.1150	2.2017
Intensity	72564.00	73012.00
Height	469578.78
AreaAbs	10837.4248
Area %BP	9.57
Area %Total	4.65
Width	0.09
Response Test	0
}
[PEAK]
{
Peak ID	14
Peak Ref	39
Time	2.3234
Peak	2.2817	2.3500
Intensity	92484.01	90319.67
Height	585443.69
AreaAbs	15131.4189
Area %BP	13.36
Area %Total	6.49
Width	0.07
Response Test	0
}
[PEAK]
{
Peak ID	16
Peak Ref	40
Time	2.4067
Peak	2.3500	2.5184
Intensity	90319.67	84988.01
Height	2843699.25
AreaAbs	113280.7578
Area %BP	100.00
Area %Total	48.58
Width	0.17
Response Test	0
}
}
[CHROMATOGRAM]
{
TraceNumber	8
Description	DAD: 550
ProcDesc
MaxIntensity	103304.00
[TRACE]
{
0.00000	0.000
0.00167	0.004
0.00333	0.008
0.00500	0.010
0.00667	0.000
0.00833	-0.005
0.01000	-0.012
0.01167	-0.018
0.01333	-0.023
0.01500	-0.019
0.01667	-0.021
0.01833	-0.018
0.02000	-0.012
0.02167	-0.008
0.02333	-0.005
0.02500	-0.001
0.02667	0.000
0.02833	-0.003
0.03000	-0.003
0.03167	-0.004
0.03333	-0.005
0.03500	-0.003
0.03667	-0.001
0.03833	-0.003
0.04000	-0.009
0.04167	-0.015
0.04333	-0.025
0.04500	-0.031
0.04667	-0.031
0.04833	-0.029
0.05000	-0.025
0.05167	-0.020
0.05333	-0.017
0.05500	-0.018
0.05667	-0.019
0.05833	-0.019
0.06000	-0.020
0.06167	-0.021
0.06333	-0.023
0.06500	-0.022
0.06667	-0.022
0.06833	-0.021
0.07000	-0.020
0.07167	-0.019
0.07333	-0.023
0.07500	-0.026
0.07667	-0.024
0.07833	-0.021
0.08000	-0.014
0.08167	-0.004
0.08333	0.003
0.08500	0.006
0.08667	0.011
0.08833	0.009
0.09000	0.007
0.09167	0.004
0.09333	0.001
0.09500	-0.006
0.09667	-0.011
0.09833	-0.019
0.10000	-0.024
0.10167	-0.025
0.10333	-0.023
0.10500	-0.022
0.10667	-0.015
0.10833	-0.008
0.11000	-0.006
0.11167	-0.003
0.11333	-0.002
0.11500	-0.004
0.11667	-0.006
0.11833	-0.005
0.12000	-0.005
0.12167	-0.001
0.12333	0.000
0.12500	0.006
0.12667	0.008
0.12833	0.011
0.13000	0.009
0.13167	0.010
0.13333	0.006
0.13500	0.000
0.13667	-0.004
0.13833	-0.005
0.14000	-0.007
0.14167	-0.008
0.14333	-0.003
0.14500	-0.001
0.14667	0.000
0.14833	-0.002
0.15000	0.000
0.15167	-0.001
0.15333	0.001
0.15500	0.002
0.15667	0.008
0.15833	0.007
0.16000	0.006
0.16167	0.001
0.16333	0.001
0.16500	-0.003
0.16667	-0.006
0.16833	-0.004
0.17000	0.000
0.17167	-0.005
0.17333	-0.010
0.17500	-0.014
0.17667	-0.023
0.17833	-0.035
0.18000	-0.036
0.18167	-0.033
0.18333	-0.032
0.18500	-0.025
0.18667	-0.014
0.18833	-0.006
0.19000	-0.001
0.19167	0.007
0.19333	0.009
0.19500	0.003
0.19667	0.000
0.19833	-0.007
0.20000	-0.015
0.20167	-0.020
0.20333	-0.020
0.20500	-0.022
0.20667	-0.019
0.20833	-0.018
0.21000	-0.018
0.21167	-0.017
0.21333	-0.017
0.21500	-0.020
0.21667	-0.017
0.21833	-0.014
0.22000	-0.011
0.22167	-0.006
0.22333	-0.001
0.22500	-0.002
0.22667	-0.002
0.22833	-0.006
0.23000	-0.010
0.23167	-0.013
0.23333	-0.015
0.23500	-0.015
0.23667	-0.012
0.23833	-0.012
0.24000	-0.010
0.24167	-0.007
0.24333	-0.009
0.24500	-0.014
0.24667	-0.013
0.24833	-0.011
0.25000	-0.010
0.25167	-0.008
0.25333	-0.004
0.25500	-0.005
0.25667	-0.009
0.25833	-0.015
0.26000	-0.015
0.26167	-0.017
0.26333	-0.017
0.26500	-0.018
0.26667	-0.016
0.26833	-0.016
0.27000	-0.014
0.27167	-0.011
0.27333	-0.007
0.27500	-0.001
0.27667	-0.002
0.27833	-0.005
0.28000	-0.005
0.28167	0.000
0.28333	0.000
0.28500	0.009
0.28667	0.018
0.28833	0.022
0.29000	0.021
0.29167	0.021
0.29333	0.016
0.29500	0.015
0.29667	0.016
0.29833	0.018
0.30000	0.019
0.30167	0.019
0.30333	0.015
0.30500	0.013
0.30667	0.014
0.30833	0.024
0.31000	0.047
0.31167	0.080
0.31333	0.120
0.31500	0.171
0.31667	0.225
0.31833	0.237
0.32000	0.080
0.32167	-0.406
0.32333	-1.317
0.32500	-2.619
0.32667	-4.198
0.32833	-5.733
0.33000	-6.807
0.33167	-7.185
0.33333	-6.860
0.33500	-5.866
0.33667	-4.447
0.33833	-2.940
0.34000	-1.545
0.34167	-0.377
0.34333	0.469
0.34500	1.021
0.34667	1.340
0.34833	1.466
0.35000	1.467
0.35167	1.406
0.35333	1.307
0.35500	1.201
0.35667	1.105
0.35833	1.036
0.36000	0.996
0.36167	0.984
0.36333	0.994
0.36500	1.022
0.36667	1.063
0.36833	1.107
0.37000	1.154
0.37167	1.201
0.37333	1.245
0.37500	1.282
0.37667	1.310
0.37833	1.326
0.38000	1.337
0.38167	1.337
0.38333	1.330
0.38500	1.322
0.38667	1.312
0.38833	1.294
0.39000	1.280
0.39167	1.261
0.39333	1.232
0.39500	1.200
0.39667	1.173
0.39833	1.138
0.40000	1.107
0.40167	1.086
0.40333	1.065
0.40500	1.040
0.40667	1.014
0.40833	0.991
0.41000	0.964
0.41167	0.937
0.41333	0.915
0.41500	0.892
0.41667	0.863
0.41833	0.834
0.42000	0.802
0.42167	0.769
0.42333	0.727
0.42500	0.686
0.42667	0.646
0.42833	0.603
0.43000	0.562
0.43167	0.532
0.43333	0.510
0.43500	0.492
0.43667	0.483
0.43833	0.480
0.44000	0.479
0.44167	0.480
0.44333	0.483
0.44500	0.486
0.44667	0.484
0.44833	0.481
0.45000	0.477
0.45167	0.469
0.45333	0.458
0.45500	0.446
0.45667	0.434
0.45833	0.421
0.46000	0.409
0.46167	0.404
0.46333	0.397
0.46500	0.390
0.46667	0.380
0.46833	0.373
0.47000	0.361
0.47167	0.348
0.47333	0.340
0.47500	0.329
0.47667	0.318
0.47833	0.311
0.48000	0.304
0.48167	0.295
0.48333	0.288
0.48500	0.284
0.48667	0.272
0.48833	0.270
0.49000	0.270
0.49167	0.270
0.49333	0.266
0.49500	0.270
0.49667	0.264
0.49833	0.252
0.50000	0.241
0.50167	0.234
0.50333	0.227
0.50500	0.222
0.50667	0.225
0.50833	0.223
0.51000	0.222
0.51167	0.221
0.51333	0.219
0.51500	0.216
0.51667	0.218
0.51833	0.223
0.52000	0.361
0.52167	0.594
0.52333	0.893
0.52500	1.263
0.52667	1.693
0.52833	1.913
0.53000	2.010
0.53167	2.033
0.53333	1.980
0.53500	1.860
0.53667	1.814
0.53833	1.804
0.54000	1.801
0.54167	1.805
0.54333	1.809
0.54500	1.818
0.54667	1.821
0.54833	1.822
0.55000	1.824
0.55167	1.828
0.55333	1.824
0.55500	1.825
0.55667	1.831
0.55833	1.837
0.56000	1.846
0.56167	1.858
0.56333	1.863
0.56500	1.860
0.56667	1.857
0.56833	1.846
0.57000	1.838
0.57167	1.835
0.57333	1.842
0.57500	1.842
0.57667	1.851
0.57833	1.859
0.58000	1.861
0.58167	1.860
0.58333	1.861
0.58500	1.863
0.58667	1.863
0.58833	1.870
0.59000	1.873
0.59167	1.877
0.59333	1.873
0.59500	1.865
0.59667	1.850
0.59833	1.846
0.60000	1.836
0.60167	1.835
0.60333	1.840
0.60500	1.850
0.60667	1.850
0.60833	1.853
0.61000	1.850
0.61167	1.844
0.61333	1.837
0.61500	1.837
0.61667	1.836
0.61833	1.836
0.62000	1.836
0.62167	1.836
0.62333	1.834
0.62500	1.833
0.62667	1.836
0.62833	1.839
0.63000	1.844
0.63167	1.847
0.63333	1.846
0.63500	1.844
0.63667	1.842
0.63833	1.838
0.64000	1.835
0.64167	1.835
0.64333	1.837
0.64500	1.840
0.64667	1.845
0.64833	1.851
0.65000	1.856
0.65167	1.859
0.65333	1.857
0.65500	1.855
0.65667	1.857
0.65833	1.853
0.66000	1.851
0.66167	1.853
0.66333	1.851
0.66500	1.848
0.66667	1.848
0.66833	1.847
0.67000	1.845
0.67167	1.848
0.67333	1.846
0.67500	1.843
0.67667	1.842
0.67833	1.840
0.68000	1.835
0.68167	1.840
0.68333	1.848
0.68500	1.852
0.68667	1.857
0.68833	1.861
0.69000	1.859
0.69167	1.855
0.69333	1.855
0.69500	1.856
0.69667	1.855
0.69833	1.857
0.70000	1.855
0.70167	1.851
0.70333	1.844
0.70500	1.843
0.70667	1.841
0.70833	1.845
0.71000	1.850
0.71167	1.855
0.71333	1.856
0.71500	1.857
0.71667	1.855
0.71833	1.852
0.72000	1.851
0.72167	1.852
0.72333	1.855
0.72500	1.857
0.72667	1.858
0.72833	1.859
0.73000	1.858
0.73167	1.855
0.73333	1.850
0.73500	1.850
0.73667	1.848
0.73833	1.844
0.74000	1.841
0.74167	1.843
0.74333	1.842
0.74500	1.843
0.74667	1.852
0.74833	1.858
0.75000	1.859
0.75167	1.857
0.75333	1.854
0.75500	1.846
0.75667	1.840
0.75833	1.837
0.76000	1.839
0.76167	1.839
0.76333	1.843
0.76500	1.846
0.76667	1.847
0.76833	1.844
0.77000	1.841
0.77167	1.836
0.77333	1.834
0.77500	1.837
0.77667	1.843
0.77833	1.852
0.78000	1.859
0.78167	1.861
0.78333	1.856
0.78500	1.846
0.78667	1.832
0.78833	1.823
0.79000	1.816
0.79167	1.819
0.79333	1.830
0.79500	1.841
0.79667	1.848
0.79833	1.857
0.80000	1.858
0.80167	1.856
0.80333	1.859
0.80500	1.864
0.80667	1.866
0.80833	1.867
0.81000	1.865
0.81167	1.856
0.81333	1.847
0.81500	1.839
0.81667	1.832
0.81833	1.830
0.82000	1.831
0.82167	1.830
0.82333	1.830
0.82500	1.831
0.82667	1.828
0.82833	1.827
0.83000	1.827
0.83167	1.830
0.83333	1.831
0.83500	1.831
0.83667	1.829
0.83833	1.825
0.84000	1.819
0.84167	1.815
0.84333	1.813
0.84500	1.813
0.84667	1.815
0.84833	1.818
0.85000	1.818
0.85167	1.821
0.85333	1.823
0.85500	1.825
0.85667	1.826
0.85833	1.832
0.86000	1.833
0.86167	1.835
0.86333	1.834
0.86500	1.832
0.86667	1.826
0.86833	1.821
0.87000	1.819
0.87167	1.820
0.87333	1.820
0.87500	1.821
0.87667	1.822
0.87833	1.821
0.88000	1.820
0.88167	1.822
0.88333	1.824
0.88500	1.826
0.88667	1.828
0.88833	1.829
0.89000	1.829
0.89167	1.831
0.89333	1.833
0.89500	1.836
0.89667	1.838
0.89833	1.840
0.90000	1.838
0.90167	1.835
0.90333	1.831
0.90500	1.826
0.90667	1.820
0.90833	1.815
0.91000	1.812
0.91167	1.816
0.91333	1.819
0.91500	1.820
0.91667	1.820
0.91833	1.820
0.92000	1.818
0.92167	1.816
0.92333	1.818
0.92500	1.823
0.92667	1.825
0.92833	1.824
0.93000	1.823
0.93167	1.820
0.93333	1.811
0.93500	1.807
0.93667	1.804
0.93833	1.802
0.94000	1.800
0.94167	1.805
0.94333	1.807
0.94500	1.810
0.94667	1.811
0.94833	1.813
0.95000	1.808
0.95167	1.805
0.95333	1.801
0.95500	1.795
0.95667	1.789
0.95833	1.790
0.96000	1.794
0.96167	1.800
0.96333	1.809
0.96500	1.818
0.96667	1.824
0.96833	1.824
0.97000	1.824
0.97167	1.824
0.97333	1.822
0.97500	1.821
0.97667	1.820
0.97833	1.817
0.98000	1.811
0.98167	1.808
0.98333	1.800
0.98500	1.794
0.98667	1.788
0.98833	1.783
0.99000	1.775
0.99167	1.775
0.99333	1.772
0.99500	1.770
0.99667	1.769
0.99833	1.771
1.00000	1.773
1.00167	1.778
1.00333	1.789
1.00500	1.795
1.00667	1.796
1.00833	1.795
1.01000	1.791
1.01167	1.783
1.01333	1.780
1.01500	1.780
1.01667	1.782
1.01833	1.787
1.02000	1.789
1.02167	1.791
1.02333	1.795
1.02500	1.794
1.02667	1.791
1.02833	1.790
1.03000	1.789
1.03167	1.781
1.03333	1.777
1.03500	1.771
1.03667	1.767
1.03833	1.761
1.04000	1.763
1.04167	1.761
1.04333	1.760
1.04500	1.758
1.04667	1.757
1.04833	1.752
1.05000	1.755
1.05167	1.762
1.05333	1.772
1.05500	1.784
1.05667	1.798
1.05833	1.801
1.06000	1.801
1.06167	1.794
1.06333	1.786
1.06500	1.773
1.06667	1.768
1.06833	1.763
1.07000	1.763
1.07167	1.761
1.07333	1.762
1.07500	1.760
1.07667	1.762
1.07833	1.760
1.08000	1.759
1.08167	1.759
1.08333	1.756
1.08500	1.752
1.08667	1.756
1.08833	1.761
1.09000	1.765
1.09167	1.773
1.09333	1.774
1.09500	1.770
1.09667	1.768
1.09833	1.768
1.10000	1.767
1.10167	1.775
1.10333	1.785
1.10500	1.789
1.10667	1.794
1.10833	1.796
1.11000	1.791
1.11167	1.783
1.11333	1.777
1.11500	1.768
1.11667	1.761
1.11833	1.758
1.12000	1.759
1.12167	1.765
1.12333	1.772
1.12500	1.776
1.12667	1.776
1.12833	1.774
1.13000	1.771
1.13167	1.764
1.13333	1.758
1.13500	1.757
1.13667	1.756
1.13833	1.749
1.14000	1.744
1.14167	1.741
1.14333	1.737
1.14500	1.732
1.14667	1.738
1.14833	1.743
1.15000	1.750
1.15167	1.754
1.15333	1.759
1.15500	1.757
1.15667	1.758
1.15833	1.760
1.16000	1.766
1.16167	1.770
1.16333	1.775
1.16500	1.779
1.16667	1.781
1.16833	1.775
1.17000	1.769
1.17167	1.757
1.17333	1.744
1.17500	1.726
1.17667	1.711
1.17833	1.696
1.18000	1.681
1.18167	1.668
1.18333	1.661
1.18500	1.649
1.18667	1.643
1.18833	1.636
1.19000	1.626
1.19167	1.612
1.19333	1.604
1.19500	1.590
1.19667	1.578
1.19833	1.568
1.20000	1.560
1.20167	1.549
1.20333	1.537
1.20500	1.526
1.20667	1.520
1.20833	1.510
1.21000	1.505
1.21167	1.502
1.21333	1.500
1.21500	1.493
1.21667	1.489
1.21833	1.480
1.22000	1.475
1.22167	1.465
1.22333	1.454
1.22500	1.439
1.22667	1.427
1.22833	1.408
1.23000	1.398
1.23167	1.390
1.23333	1.384
1.23500	1.382
1.23667	1.383
1.23833	1.381
1.24000	1.375
1.24167	1.375
1.24333	1.368
1.24500	1.360
1.24667	1.355
1.24833	1.352
1.25000	1.340
1.25167	1.331
1.25333	1.321
1.25500	1.312
1.25667	1.302
1.25833	1.300
1.26000	1.297
1.26167	1.296
1.26333	1.295
1.26500	1.291
1.26667	1.286
1.26833	1.279
1.27000	1.275
1.27167	1.265
1.27333	1.258
1.27500	1.254
1.27667	1.250
1.27833	1.240
1.28000	1.236
1.28167	1.228
1.28333	1.218
1.28500	1.207
1.28667	1.199
1.28833	1.195
1.29000	1.187
1.29167	1.187
1.29333	1.186
1.29500	1.190
1.29667	1.190
1.29833	1.195
1.30000	1.192
1.30167	1.192
1.30333	1.185
1.30500	1.176
1.30667	1.165
1.30833	1.158
1.31000	1.146
1.31167	1.137
1.31333	1.135
1.31500	1.133
1.31667	1.133
1.31833	1.135
1.32000	1.139
1.32167	1.142
1.32333	1.147
1.32500	1.148
1.32667	1.149
1.32833	1.152
1.33000	1.153
1.33167	1.150
1.33333	1.149
1.33500	1.147
1.33667	1.136
1.33833	1.128
1.34000	1.121
1.34167	1.117
1.34333	1.116
1.34500	1.123
1.34667	1.127
1.34833	1.128
1.35000	1.126
1.35167	1.124
1.35333	1.117
1.35500	1.109
1.35667	1.107
1.35833	1.103
1.36000	1.097
1.36167	1.093
1.36333	1.090
1.36500	1.083
1.36667	1.079
1.36833	1.076
1.37000	1.076
1.37167	1.074
1.37333	1.073
1.37500	1.069
1.37667	1.056
1.37833	1.034
1.38000	0.999
1.38167	0.952
1.38333	0.891
1.38500	0.824
1.38667	0.748
1.38833	0.672
1.39000	0.601
1.39167	0.540
1.39333	0.484
1.39500	0.443
1.39667	0.413
1.39833	0.390
1.40000	0.372
1.40167	0.361
1.40333	0.354
1.40500	0.350
1.40667	0.347
1.40833	0.347
1.41000	0.348
1.41167	0.347
1.41333	0.347
1.41500	0.354
1.41667	0.366
1.41833	0.390
1.42000	0.424
1.42167	0.464
1.42333	0.506
1.42500	0.553
1.42667	0.593
1.42833	0.631
1.43000	0.673
1.43167	0.706
1.43333	0.737
1.43500	0.767
1.43667	0.795
1.43833	0.810
1.44000	0.829
1.44167	0.843
1.44333	0.853
1.44500	0.863
1.44667	0.877
1.44833	0.891
1.45000	0.904
1.45167	0.916
1.45333	0.927
1.45500	0.939
1.45667	0.950
1.45833	0.953
1.46000	0.956
1.46167	0.956
1.46333	0.953
1.46500	0.943
1.46667	0.938
1.46833	0.936
1.47000	0.932
1.47167	0.930
1.47333	0.936
1.47500	0.943
1.47667	0.953
1.47833	0.977
1.48000	1.011
1.48167	1.051
1.48333	1.104
1.48500	1.161
1.48667	1.218
1.48833	1.274
1.49000	1.326
1.49167	1.369
1.49333	1.412
1.49500	1.456
1.49667	1.501
1.49833	1.550
1.50000	1.600
1.50167	1.646
1.50333	1.683
1.50500	1.715
1.50667	1.736
1.50833	1.748
1.51000	1.759
1.51167	1.772
1.51333	1.784
1.51500	1.803
1.51667	1.829
1.51833	1.848
1.52000	1.860
1.52167	1.864
1.52333	1.859
1.52500	1.841
1.52667	1.823
1.52833	1.805
1.53000	1.794
1.53167	1.788
1.53333	1.788
1.53500	1.797
1.53667	1.802
1.53833	1.806
1.54000	1.812
1.54167	1.826
1.54333	1.848
1.54500	1.887
1.54667	1.943
1.54833	2.002
1.55000	2.049
1.55167	2.075
1.55333	2.079
1.55500	2.060
1.55667	2.045
1.55833	2.058
1.56000	2.114
1.56167	2.218
1.56333	2.359
1.56500	2.503
1.56667	2.618
1.56833	2.675
1.57000	2.660
1.57167	2.580
1.57333	2.454
1.57500	2.315
1.57667	2.193
1.57833	2.102
1.58000	2.051
1.58167	2.043
1.58333	2.067
1.58500	2.107
1.58667	2.163
1.58833	2.230
1.59000	2.300
1.59167	2.368
1.59333	2.443
1.59500	2.511
1.59667	2.566
1.59833	2.609
1.60000	2.635
1.60167	2.633
1.60333	2.613
1.60500	2.575
1.60667	2.529
1.60833	2.488
1.61000	2.469
1.61167	2.479
1.61333	2.525
1.61500	2.603
1.61667	2.708
1.61833	2.829
1.62000	2.957
1.62167	3.085
1.62333	3.228
1.62500	3.409
1.62667	3.677
1.62833	4.072
1.63000	4.635
1.63167	5.349
1.63333	6.164
1.63500	6.986
1.63667	7.727
1.63833	8.305
1.64000	8.693
1.64167	8.896
1.64333	8.937
1.64500	8.851
1.64667	8.663
1.64833	8.390
1.65000	8.059
1.65167	7.717
1.65333	7.393
1.65500	7.128
1.65667	6.964
1.65833	6.932
1.66000	7.037
1.66167	7.301
1.66333	7.730
1.66500	8.341
1.66667	9.176
1.66833	10.347
1.67000	11.984
1.67167	14.201
1.67333	16.993
1.67500	20.179
1.67667	23.382
1.67833	26.165
1.68000	28.169
1.68167	29.277
1.68333	29.648
1.68500	29.620
1.68667	29.525
1.68833	29.536
1.69000	29.575
1.69167	29.397
1.69333	28.737
1.69500	27.439
1.69667	25.552
1.69833	23.312
1.70000	21.044
1.70167	19.058
1.70333	17.567
1.70500	16.631
1.70667	16.167
1.70833	16.004
1.71000	15.940
1.71167	15.809
1.71333	15.518
1.71500	15.089
1.71667	14.623
1.71833	14.271
1.72000	14.197
1.72167	14.525
1.72333	15.258
1.72500	16.273
1.72667	17.345
1.72833	18.169
1.73000	18.477
1.73167	18.121
1.73333	17.116
1.73500	15.611
1.73667	13.848
1.73833	12.067
1.74000	10.459
1.74167	9.133
1.74333	8.131
1.74500	7.476
1.74667	7.195
1.74833	7.306
1.75000	7.814
1.75167	8.699
1.75333	9.884
1.75500	11.299
1.75667	12.947
1.75833	15.031
1.76000	18.007
1.76167	22.500
1.76333	29.070
1.76500	37.865
1.76667	48.347
1.76833	59.212
1.77000	68.656
1.77167	74.882
1.77333	76.713
1.77500	73.945
1.77667	67.374
1.77833	58.491
1.78000	48.958
1.78167	40.134
1.78333	32.839
1.78500	27.334
1.78667	23.491
1.78833	20.999
1.79000	19.518
1.79167	18.760
1.79333	18.484
1.79500	18.499
1.79667	18.647
1.79833	18.801
1.80000	18.871
1.80167	18.817
1.80333	18.651
1.80500	18.387
1.80667	18.078
1.80833	17.761
1.81000	17.472
1.81167	17.216
1.81333	17.011
1.81500	16.838
1.81667	16.692
1.81833	16.552
1.82000	16.410
1.82167	16.248
1.82333	16.070
1.82500	15.869
1.82667	15.660
1.82833	15.442
1.83000	15.240
1.83167	15.074
1.83333	14.972
1.83500	14.967
1.83667	15.101
1.83833	15.379
1.84000	15.782
1.84167	16.259
1.84333	16.732
1.84500	17.095
1.84667	17.272
1.84833	17.225
1.85000	16.950
1.85167	16.485
1.85333	15.906
1.85500	15.289
1.85667	14.700
1.85833	14.188
1.86000	13.776
1.86167	13.472
1.86333	13.260
1.86500	13.116
1.86667	13.017
1.86833	12.935
1.87000	12.854
1.87167	12.767
1.87333	12.666
1.87500	12.550
1.87666	12.438
1.87833	12.343
1.88000	12.303
1.88166	12.384
1.88333	12.653
1.88500	13.165
1.88666	13.934
1.88833	14.908
1.89000	15.964
1.89166	16.934
1.89333	17.651
1.89500	18.006
1.89666	17.963
1.89833	17.585
1.90000	16.995
1.90166	16.330
1.90333	15.704
1.90500	15.185
1.90666	14.783
1.90833	14.465
1.91000	14.191
1.91166	13.926
1.91333	13.637
1.91500	13.324
1.91666	13.000
1.91833	12.682
1.92000	12.382
1.92166	12.126
1.92333	11.928
1.92500	11.774
1.92666	11.661
1.92833	11.579
1.93000	11.512
1.93166	11.452
1.93333	11.408
1.93500	11.391
1.93666	11.410
1.93833	11.463
1.94000	11.529
1.94166	11.581
1.94333	11.578
1.94500	11.482
1.94666	11.282
1.94833	10.988
1.95000	10.618
1.95166	10.215
1.95333	9.814
1.95500	9.438
1.95666	9.106
1.95833	8.821
1.96000	8.570
1.96166	8.349
1.96333	8.151
1.96500	7.964
1.96666	7.788
1.96833	7.623
1.97000	7.463
1.97166	7.313
1.97333	7.169
1.97500	7.032
1.97666	6.894
1.97833	6.762
1.98000	6.622
1.98166	6.481
1.98333	6.335
1.98500	6.190
1.98666	6.048
1.98833	5.911
1.99000	5.774
1.99166	5.643
1.99333	5.506
1.99500	5.364
1.99666	5.225
1.99833	5.094
2.00000	4.963
2.00166	4.849
2.00333	4.742
2.00500	4.639
2.00667	4.534
2.00833	4.433
2.01000	4.327
2.01167	4.226
2.01333	4.132
2.01500	4.044
2.01667	3.964
2.01833	3.887
2.02000	3.808
2.02167	3.723
2.02333	3.635
2.02500	3.539
2.02667	3.439
2.02833	3.339
2.03000	3.239
2.03167	3.138
2.03333	3.040
2.03500	2.945
2.03667	2.860
2.03833	2.784
2.04000	2.722
2.04167	2.674
2.04333	2.634
2.04500	2.596
2.04667	2.558
2.04833	2.517
2.05000	2.477
2.05167	2.441
2.05334	2.418
2.05500	2.405
2.05667	2.408
2.05834	2.420
2.06000	2.436
2.06167	2.449
2.06334	2.460
2.06500	2.465
2.06667	2.467
2.06834	2.463
2.07000	2.459
2.07167	2.449
2.07334	2.431
2.07500	2.396
2.07667	2.350
2.07834	2.289
2.08000	2.214
2.08167	2.134
2.08334	2.060
2.08500	1.995
2.08667	1.945
2.08834	1.921
2.09000	1.922
2.09167	1.950
2.09334	1.991
2.09500	2.042
2.09667	2.090
2.09834	2.122
2.10001	2.126
2.10167	2.100
2.10334	2.043
2.10501	1.953
2.10667	1.845
2.10834	1.729
2.11001	1.613
2.11167	1.505
2.11334	1.414
2.11501	1.338
2.11667	1.279
2.11834	1.244
2.12001	1.238
2.12167	1.261
2.12334	1.315
2.12501	1.396
2.12667	1.498
2.12834	1.599
2.13001	1.689
2.13167	1.762
2.13334	1.797
2.13501	1.784
2.13667	1.742
2.13834	1.672
2.14001	1.572
2.14167	1.466
2.14334	1.367
2.14501	1.265
2.14668	1.177
2.14834	1.113
2.15001	1.066
2.15168	1.026
2.15334	1.010
2.15501	0.996
2.15668	0.979
2.15834	0.957
2.16001	0.936
2.16168	0.902
2.16334	0.864
2.16501	0.823
2.16668	0.778
2.16834	0.732
2.17001	0.685
2.17168	0.641
2.17334	0.600
2.17501	0.562
2.17668	0.530
2.17834	0.499
2.18001	0.469
2.18168	0.444
2.18334	0.417
2.18501	0.390
2.18668	0.364
2.18834	0.349
2.19001	0.336
2.19168	0.330
2.19335	0.331
2.19501	0.337
2.19668	0.336
2.19835	0.336
2.20001	0.338
2.20168	0.337
2.20335	0.343
2.20501	0.362
2.20668	0.392
2.20835	0.428
2.21001	0.470
2.21168	0.516
2.21335	0.557
2.21501	0.591
2.21668	0.617
2.21835	0.639
2.22001	0.652
2.22168	0.669
2.22335	0.691
2.22501	0.733
2.22668	0.786
2.22835	0.853
2.23001	0.923
2.23168	0.987
2.23335	1.035
2.23501	1.056
2.23668	1.058
2.23835	1.036
2.24002	1.003
2.24168	0.960
2.24335	0.930
2.24502	0.907
2.24668	0.905
2.24835	0.919
2.25002	0.952
2.25168	0.986
2.25335	1.034
2.25502	1.079
2.25668	1.125
2.25835	1.169
2.26002	1.219
2.26168	1.258
2.26335	1.298
2.26502	1.332
2.26668	1.357
2.26835	1.369
2.27002	1.372
2.27168	1.357
2.27335	1.329
2.27502	1.286
2.27668	1.237
2.27835	1.189
2.28002	1.150
2.28168	1.127
2.28335	1.128
2.28502	1.148
2.28668	1.186
2.28835	1.240
2.29002	1.310
2.29169	1.384
2.29335	1.471
2.29502	1.578
2.29669	1.716
2.29835	1.907
2.30002	2.186
2.30169	2.581
2.30335	3.133
2.30502	3.870
2.30669	4.828
2.30835	6.023
2.31002	7.468
2.31169	9.143
2.31335	11.005
2.31502	12.974
2.31669	14.925
2.31835	16.696
2.32002	18.119
2.32169	19.037
2.32335	19.341
2.32502	18.998
2.32669	18.061
2.32835	16.660
2.33002	14.967
2.33169	13.163
2.33335	11.422
2.33502	9.855
2.33669	8.527
2.33836	7.456
2.34002	6.631
2.34169	6.013
2.34336	5.567
2.34502	5.266
2.34669	5.088
2.34836	5.022
2.35002	5.075
2.35169	5.259
2.35336	5.584
2.35502	6.068
2.35669	6.726
2.35836	7.560
2.36002	8.579
2.36169	9.778
2.36336	11.144
2.36502	12.664
2.36669	14.334
2.36836	16.144
2.37002	18.092
2.37169	20.205
2.37336	22.497
2.37502	24.986
2.37669	27.697
2.37836	30.645
2.38002	33.834
2.38169	37.261
2.38336	40.924
2.38503	44.815
2.38669	48.916
2.38836	53.210
2.39003	57.690
2.39169	62.336
2.39336	67.130
2.39503	72.051
2.39669	77.066
2.39836	82.123
2.40003	87.083
2.40169	91.733
2.40336	95.741
2.40503	98.660
2.40669	100.000
2.40836	99.326
2.41003	96.368
2.41169	91.129
2.41336	83.927
2.41503	75.343
2.41669	66.127
2.41836	57.036
2.42003	48.683
2.42169	41.450
2.42336	35.487
2.42503	30.734
2.42669	27.029
2.42836	24.154
2.43003	21.902
2.43170	20.111
2.43336	18.643
2.43503	17.386
2.43670	16.279
2.43836	15.269
2.44003	14.325
2.44170	13.421
2.44336	12.564
2.44503	11.730
2.44670	10.935
2.44836	10.171
2.45003	9.449
2.45170	8.760
2.45336	8.122
2.45503	7.528
2.45670	6.986
2.45836	6.490
2.46003	6.037
2.46170	5.619
2.46336	5.237
2.46503	4.883
2.46670	4.559
2.46836	4.265
2.47003	4.001
2.47170	3.760
2.47336	3.538
2.47503	3.330
2.47670	3.138
2.47837	2.957
2.48003	2.790
2.48170	2.632
2.48337	2.486
2.48503	2.348
2.48670	2.223
2.48837	2.102
2.49003	1.994
2.49170	1.896
2.49337	1.805
2.49503	1.712
2.49670	1.626
2.49837	1.543
2.50003	1.463
2.50170	1.391
2.50337	1.333
2.50503	1.285
2.50670	1.238
2.50837	1.200
2.51003	1.164
2.51170	1.120
2.51337	1.074
2.51503	1.031
2.51670	0.988
2.51837	0.953
2.52003	0.935
2.52170	0.930
2.52337	0.935
2.52504	0.956
2.52670	0.980
2.52837	1.000
2.53004	1.018
2.53170	1.037
2.53337	1.044
2.53504	1.047
2.53670	1.044
2.53837	1.031
2.54004	1.008
2.54170	0.978
2.54337	0.946
2.54504	0.907
2.54670	0.868
2.54837	0.831
2.55004	0.793
2.55170	0.753
2.55337	0.717
2.55504	0.690
2.55670	0.667
2.55837	0.651
2.56004	0.640
2.56170	0.630
2.56337	0.612
2.56504	0.590
2.56670	0.560
2.56837	0.528
2.57004	0.494
2.57171	0.463
2.57337	0.434
2.57504	0.411
2.57671	0.386
2.57837	0.356
2.58004	0.325
2.58171	0.295
2.58337	0.265
2.58504	0.239
2.58671	0.224
2.58837	0.211
2.59004	0.203
2.59171	0.198
2.59337	0.201
2.59504	0.203
2.59671	0.214
2.59837	0.229
2.60004	0.257
2.60171	0.294
2.60337	0.351
2.60504	0.420
2.60671	0.508
2.60837	0.608
2.61004	0.714
2.61171	0.826
2.61337	0.944
2.61504	1.053
2.61671	1.151
2.61838	1.233
2.62004	1.294
2.62171	1.325
2.62338	1.336
2.62504	1.320
2.62671	1.284
2.62838	1.229
2.63004	1.163
2.63171	1.087
2.63338	1.012
2.63504	0.940
2.63671	0.871
2.63838	0.807
2.64004	0.750
2.64171	0.696
2.64338	0.639
2.64504	0.585
2.64671	0.533
2.64838	0.480
2.65004	0.422
2.65171	0.368
2.65338	0.314
2.65504	0.262
2.65671	0.211
2.65838	0.165
2.66004	0.119
2.66171	0.074
2.66338	0.031
2.66505	-0.007
2.66671	-0.046
2.66838	-0.080
2.67005	-0.111
2.67171	-0.136
2.67338	-0.158
2.67505	-0.175
2.67671	-0.189
2.67838	-0.197
2.68005	-0.215
2.68171	-0.229
2.68338	-0.242
2.68505	-0.259
2.68671	-0.281
2.68838	-0.290
2.69005	-0.300
2.69171	-0.310
2.69338	-0.316
2.69505	-0.318
2.69671	-0.329
2.69838	-0.335
2.70005	-0.343
2.70171	-0.347
2.70338	-0.350
2.70505	-0.350
2.70671	-0.354
2.70838	-0.359
2.71005	-0.368
2.71171	-0.380
2.71338	-0.390
2.71505	-0.393
2.71672	-0.398
2.71838	-0.397
2.72005	-0.396
2.72172	-0.396
2.72338	-0.398
2.72505	-0.398
2.72672	-0.400
2.72838	-0.394
2.73005	-0.390
2.73172	-0.385
2.73338	-0.378
2.73505	-0.371
2.73672	-0.368
2.73838	-0.363
2.74005	-0.360
2.74172	-0.360
2.74338	-0.366
2.74505	-0.372
2.74672	-0.378
2.74838	-0.386
2.75005	-0.392
2.75172	-0.393
2.75338	-0.391
2.75505	-0.394
2.75672	-0.389
2.75838	-0.387
2.76005	-0.385
2.76172	-0.387
2.76339	-0.387
2.76505	-0.389
2.76672	-0.388
2.76839	-0.394
2.77005	-0.400
2.77172	-0.407
2.77339	-0.418
2.77505	-0.432
2.77672	-0.439
2.77839	-0.444
2.78005	-0.444
2.78172	-0.439
2.78339	-0.435
2.78505	-0.434
2.78672	-0.439
2.78839	-0.448
2.79005	-0.463
2.79172	-0.476
2.79339	-0.490
2.79505	-0.500
2.79672	-0.508
2.79839	-0.513
2.80005	-0.516
2.80172	-0.515
2.80339	-0.516
2.80505	-0.513
2.80672	-0.514
2.80839	-0.515
2.81006	-0.521
2.81172	-0.518
2.81339	-0.521
2.81506	-0.518
2.81672	-0.516
2.81839	-0.512
2.82006	-0.516
2.82172	-0.515
2.82339	-0.514
2.82506	-0.512
2.82672	-0.508
2.82839	-0.505
2.83006	-0.504
2.83172	-0.507
2.83339	-0.511
2.83506	-0.514
2.83672	-0.514
2.83839	-0.515
2.84006	-0.510
2.84172	-0.505
2.84339	-0.500
2.84506	-0.495
2.84672	-0.485
2.84839	-0.476
2.85006	-0.466
2.85172	-0.454
2.85339	-0.442
2.85506	-0.435
2.85673	-0.427
2.85839	-0.420
2.86006	-0.414
2.86173	-0.409
2.86339	-0.406
2.86506	-0.407
2.86673	-0.408
2.86839	-0.412
2.87006	-0.418
2.87173	-0.420
2.87339	-0.420
2.87506	-0.422
2.87673	-0.423
2.87839	-0.426
2.88006	-0.431
2.88173	-0.434
2.88339	-0.434
2.88506	-0.433
2.88673	-0.430
2.88839	-0.428
2.89006	-0.427
2.89173	-0.426
2.89339	-0.422
2.89506	-0.418
2.89673	-0.412
2.89839	-0.407
2.90006	-0.399
2.90173	-0.392
2.90340	-0.380
2.90506	-0.373
2.90673	-0.361
2.90840	-0.353
2.91006	-0.344
2.91173	-0.335
2.91340	-0.322
2.91506	-0.309
2.91673	-0.293
2.91840	-0.281
2.92006	-0.269
2.92173	-0.257
2.92340	-0.251
2.92506	-0.242
2.92673	-0.235
2.92840	-0.228
2.93006	-0.223
2.93173	-0.216
2.93340	-0.208
2.93506	-0.195
2.93673	-0.182
2.93840	-0.169
2.94006	-0.162
2.94173	-0.154
2.94340	-0.155
2.94506	-0.152
2.94673	-0.149
2.94840	-0.140
2.95007	-0.131
2.95173	-0.120
2.95340	-0.108
2.95507	-0.094
2.95673	-0.076
2.95840	-0.062
2.96007	-0.040
2.96173	-0.017
2.96340	0.003
2.96507	0.025
2.96673	0.059
2.96840	0.090
2.97007	0.127
2.97173	0.167
2.97340	0.208
2.97507	0.249
2.97673	0.294
2.97840	0.342
2.98007	0.393
2.98173	0.450
2.98340	0.503
2.98507	0.553
2.98673	0.606
2.98840	0.656
2.99007	0.705
2.99173	0.760
2.99340	0.825
2.99507	0.884
2.99674	0.946
2.99840	1.011
3.00007	1.065
3.00174	1.109
3.00340	1.154
3.00507	1.193
3.00674	1.227
3.00840	1.267
3.01007	1.308
3.01174	1.352
3.01340	1.399
3.01507	1.449
3.01674	1.498
3.01840	1.549
3.02007	1.592
3.02174	1.637
3.02340	1.672
3.02507	1.706
3.02674	1.735
3.02840	1.762
3.03007	1.784
3.03174	1.806
3.03340	1.820
3.03507	1.831
3.03674	1.831
3.03840	1.827
3.04007	1.818
3.04174	1.806
3.04341	1.784
3.04507	1.764
3.04674	1.740
3.04841	1.709
3.05007	1.677
3.05174	1.648
3.05341	1.616
3.05507	1.582
3.05674	1.552
3.05841	1.523
3.06007	1.492
3.06174	1.462
3.06341	1.436
3.06507	1.410
3.06674	1.386
3.06841	1.371
3.07007	1.355
3.07174	1.342
3.07341	1.327
3.07507	1.314
3.07674	1.294
3.07841	1.281
3.08007	1.267
3.08174	1.260
3.08341	1.256
3.08507	1.254
3.08674	1.249
3.08841	1.245
3.09008	1.231
3.09174	1.215
3.09341	1.199
3.09508	1.182
3.09674	1.165
3.09841	1.162
3.10008	1.159
3.10174	1.155
3.10341	1.154
3.10508	1.146
3.10674	1.134
3.10841	1.120
3.11008	1.109
3.11174	1.100
3.11341	1.098
3.11508	1.093
3.11674	1.088
3.11841	1.084
3.12008	1.077
3.12174	1.069
3.12341	1.061
3.12508	1.057
3.12674	1.052
3.12841	1.053
3.13008	1.052
3.13174	1.053
3.13341	1.055
3.13508	1.056
3.13674	1.055
3.13841	1.058
3.14008	1.061
3.14175	1.062
3.14341	1.066
3.14508	1.070
3.14675	1.071
3.14841	1.075
3.15008	1.080
3.15175	1.085
3.15341	1.090
3.15508	1.099
3.15675	1.103
3.15841	1.106
3.16008	1.114
3.16175	1.122
3.16341	1.122
3.16508	1.127
3.16675	1.131
3.16841	1.129
3.17008	1.129
3.17175	1.135
3.17341	1.138
3.17508	1.148
3.17675	1.160
3.17841	1.167
3.18008	1.173
3.18175	1.182
3.18341	1.186
3.18508	1.194
3.18675	1.207
3.18842	1.219
3.19008	1.226
3.19175	1.231
3.19342	1.231
3.19508	1.226
3.19675	1.226
3.19842	1.224
3.20008	1.224
3.20175	1.228
3.20342	1.235
3.20508	1.238
3.20675	1.248
3.20842	1.261
3.21008	1.276
3.21175	1.289
3.21342	1.308
3.21508	1.322
3.21675	1.331
3.21842	1.336
3.22008	1.342
3.22175	1.347
3.22342	1.346
3.22508	1.351
3.22675	1.359
3.22842	1.366
3.23008	1.368
3.23175	1.377
3.23342	1.381
3.23509	1.383
3.23675	1.384
3.23842	1.392
3.24009	1.396
3.24175	1.400
3.24342	1.410
3.24509	1.420
3.24675	1.427
3.24842	1.438
3.25009	1.455
3.25175	1.468
3.25342	1.481
3.25509	1.495
3.25675	1.502
3.25842	1.505
3.26009	1.507
3.26175	1.515
3.26342	1.524
3.26509	1.536
3.26675	1.549
3.26842	1.560
3.27009	1.563
3.27175	1.562
3.27342	1.560
3.27509	1.558
3.27675	1.557
3.27842	1.559
3.28009	1.561
3.28176	1.565
3.28342	1.575
3.28509	1.587
3.28676	1.606
3.28842	1.625
3.29009	1.643
3.29176	1.652
3.29342	1.657
3.29509	1.650
3.29676	1.647
3.29842	1.638
3.30009	1.633
3.30176	1.631
3.30342	1.629
3.30509	1.624
3.30676	1.625
3.30842	1.628
3.31009	1.630
3.31176	1.637
3.31342	1.645
3.31509	1.650
3.31676	1.655
3.31842	1.661
3.32009	1.669
3.32176	1.677
3.32342	1.685
3.32509	1.693
3.32676	1.699
3.32843	1.700
3.33009	1.703
3.33176	1.703
3.33343	1.702
3.33509	1.701
3.33676	1.700
3.33843	1.695
3.34009	1.690
3.34176	1.692
3.34343	1.689
3.34509	1.689
3.34676	1.691
3.34843	1.697
3.35009	1.693
3.35176	1.698
3.35343	1.702
3.35509	1.706
3.35676	1.707
3.35843	1.712
3.36009	1.711
3.36176	1.710
3.36343	1.707
3.36509	1.701
3.36676	1.693
3.36843	1.687
3.37009	1.677
3.37176	1.666
3.37343	1.661
3.37510	1.657
3.37676	1.656
3.37843	1.667
3.38010	1.677
3.38176	1.685
3.38343	1.695
3.38510	1.699
3.38676	1.697
3.38843	1.696
3.39010	1.694
3.39176	1.689
3.39343	1.688
3.39510	1.687
3.39676	1.686
3.39843	1.682
3.40010	1.682
3.40176	1.679
3.40343	1.675
3.40510	1.668
3.40676	1.666
3.40843	1.663
3.41010	1.661
3.41176	1.662
3.41343	1.664
3.41510	1.660
3.41676	1.658
3.41843	1.658
3.42010	1.655
3.42177	1.655
3.42343	1.661
3.42510	1.664
3.42677	1.667
3.42843	1.673
3.43010	1.678
3.43177	1.680
3.43343	1.687
3.43510	1.691
3.43677	1.691
3.43843	1.692
3.44010	1.684
3.44177	1.679
3.44343	1.673
3.44510	1.671
3.44677	1.667
3.44843	1.676
3.45010	1.681
3.45177	1.688
3.45343	1.692
3.45510	1.697
3.45677	1.694
3.45843	1.693
3.46010	1.691
3.46177	1.691
3.46343	1.690
3.46510	1.685
3.46677	1.680
3.46844	1.677
3.47010	1.669
3.47177	1.664
3.47344	1.665
3.47510	1.667
3.47677	1.667
3.47844	1.669
3.48010	1.673
3.48177	1.674
3.48344	1.672
3.48510	1.675
3.48677	1.682
3.48844	1.687
3.49010	1.692
3.49177	1.700
3.49344	1.699
3.49510	1.690
3.49677	1.680
3.49844	1.669
3.50010	1.657
}
[PEAK]
{
Peak ID	2
Peak Ref	41
Time	1.6833
Peak	1.6600	1.7200
Intensity	7269.00	14666.00
Height	20482.38
AreaAbs	553.9186
Area %BP	13.42
Area %Total	8.96
Width	0.06
Response Test	0
}
[PEAK]
{
Peak ID	4
Peak Ref	42
Time	1.7733
Peak	1.7500	1.7950
Intensity	8072.00	19110.00
Height	65452.60
AreaAbs	1035.4058
Area %BP	25.08
Area %Total	16.74
Width	0.04
Response Test	0
}
[PEAK]
{
Peak ID	14
Peak Ref	43
Time	2.3234
Peak	2.2834	2.3484
Intensity	1165.00	1124.89
Height	18839.69
AreaAbs	467.9909
Area %BP	11.34
Area %Total	7.57
Width	0.07
Response Test	0
}
[PEAK]
{
Peak ID	16
Peak Ref	44
Time	2.4067
Peak	2.3484	2.5167
Intensity	1124.89	1021.00
Height	102215.12
AreaAbs	4127.8999
Area %BP	100.00
Area %Total	66.74
Width	0.17
Response Test	0
}
}
}
[FUNCTION]
{
Function	0
Description	ANALOG
[CHROMATOGRAM]
{
TraceNumber	9
Description	System Pressure
CustomChartParameters	,$CC$,1.000000,0.000000,3,0,0,bar
ProcDesc	Smooth (Mn, 2x2)
MaxIntensity	425.72
[TRACE]
{
0.00167	83.458
0.00333	83.458
0.00500	83.457
0.00667	83.436
0.00833	83.382
0.01000	83.284
0.01167	83.137
0.01333	82.937
0.01500	82.721
0.01667	82.516
0.01833	82.342
0.02000	82.215
0.02167	82.147
0.02333	82.146
0.02500	82.220
0.02667	82.373
0.02833	82.607
0.03000	82.922
0.03167	83.278
0.03333	83.647
0.03500	84.005
0.03667	84.336
0.03833	84.625
0.04000	84.882
0.04167	85.112
0.04333	85.322
0.04500	85.513
0.04667	85.690
0.04833	85.855
0.05000	86.011
0.05167	86.162
0.05333	86.309
0.05500	86.455
0.05667	86.602
0.05833	86.749
0.06000	86.895
0.06167	87.038
0.06333	87.176
0.06500	87.306
0.06667	87.426
0.06833	87.537
0.07000	87.636
0.07167	87.723
0.07333	87.798
0.07500	87.861
0.07667	87.915
0.07833	87.961
0.08000	88.002
0.08167	88.038
0.08333	88.071
0.08500	88.102
0.08667	88.129
0.08833	88.152
0.09000	88.173
0.09167	88.190
0.09333	88.204
0.09500	88.215
0.09667	88.222
0.09833	88.228
0.10000	88.232
0.10167	88.235
0.10333	88.239
0.10500	88.243
0.10667	88.248
0.10833	88.254
0.11000	88.261
0.11167	88.269
0.11333	88.280
0.11500	88.292
0.11667	88.306
0.11833	88.322
0.12000	88.339
0.12167	88.357
0.12333	88.375
0.12500	88.394
0.12667	88.413
0.12833	88.431
0.13000	88.449
0.13167	88.466
0.13333	88.482
0.13500	88.495
0.13667	88.508
0.13833	88.519
0.14000	88.530
0.14167	88.540
0.14333	88.550
0.14500	88.560
0.14667	88.570
0.14833	88.580
0.15000	88.591
0.15167	88.601
0.15333	88.611
0.15500	88.619
0.15667	88.626
0.15833	88.632
0.16000	88.637
0.16167	88.642
0.16333	88.647
0.16500	88.652
0.16667	88.658
0.16833	88.665
0.17000	88.673
0.17167	88.681
0.17333	88.691
0.17500	88.701
0.17667	88.711
0.17833	88.720
0.18000	88.727
0.18167	88.734
0.18333	88.739
0.18500	88.744
0.18667	88.748
0.18833	88.751
0.19000	88.755
0.19167	88.758
0.19333	88.761
0.19500	88.765
0.19667	88.768
0.19833	88.771
0.20000	88.773
0.20167	88.776
0.20333	88.777
0.20500	88.777
0.20667	88.777
0.20833	88.776
0.21000	88.775
0.21167	88.775
0.21333	88.775
0.21500	88.775
0.21667	88.777
0.21833	88.778
0.22000	88.780
0.22167	88.783
0.22333	88.786
0.22500	88.788
0.22667	88.791
0.22833	88.792
0.23000	88.792
0.23167	88.791
0.23333	88.790
0.23500	88.788
0.23667	88.787
0.23833	88.786
0.24000	88.785
0.24167	88.784
0.24333	88.784
0.24500	88.783
0.24667	88.782
0.24833	88.781
0.25000	88.780
0.25167	88.778
0.25333	88.776
0.25500	88.774
0.25667	88.771
0.25833	88.768
0.26000	88.766
0.26167	88.764
0.26333	88.763
0.26500	88.764
0.26667	88.765
0.26833	88.768
0.27000	88.771
0.27167	88.775
0.27333	88.779
0.27500	88.784
0.27667	88.788
0.27833	88.791
0.28000	88.794
0.28167	88.796
0.28333	88.798
0.28500	88.799
0.28667	88.800
0.28833	88.801
0.29000	88.802
0.29167	88.802
0.29333	88.803
0.29500	88.804
0.29667	88.805
0.29833	88.807
0.30000	88.809
0.30167	88.812
0.30333	88.815
0.30500	88.819
0.30667	88.824
0.30833	88.831
0.31000	88.839
0.31167	88.850
0.31333	88.862
0.31500	88.874
0.31667	88.888
0.31833	88.903
0.32000	88.918
0.32167	88.934
0.32333	88.949
0.32500	88.962
0.32667	88.973
0.32833	88.983
0.33000	88.990
0.33167	88.995
0.33333	88.999
0.33500	89.002
0.33667	89.005
0.33833	89.008
0.34000	89.013
0.34167	89.018
0.34333	89.026
0.34500	89.035
0.34667	89.045
0.34833	89.054
0.35000	89.063
0.35167	89.069
0.35333	89.072
0.35500	89.072
0.35667	89.068
0.35833	89.059
0.36000	89.046
0.36167	89.029
0.36333	89.007
0.36500	88.982
0.36667	88.953
0.36833	88.922
0.37000	88.888
0.37167	88.852
0.37333	88.815
0.37500	88.776
0.37667	88.736
0.37833	88.695
0.38000	88.655
0.38167	88.615
0.38333	88.575
0.38500	88.536
0.38667	88.498
0.38833	88.461
0.39000	88.424
0.39167	88.388
0.39333	88.353
0.39500	88.318
0.39667	88.283
0.39833	88.248
0.40000	88.213
0.40167	88.177
0.40333	88.141
0.40500	88.106
0.40667	88.072
0.40833	88.039
0.41000	88.008
0.41167	87.979
0.41333	87.951
0.41500	87.925
0.41667	87.901
0.41833	87.879
0.42000	87.857
0.42167	87.835
0.42333	87.814
0.42500	87.791
0.42667	87.769
0.42833	87.746
0.43000	87.724
0.43167	87.703
0.43333	87.682
0.43500	87.662
0.43667	87.643
0.43833	87.624
0.44000	87.605
0.44167	87.587
0.44333	87.569
0.44500	87.552
0.44667	87.534
0.44833	87.517
0.45000	87.500
0.45167	87.482
0.45333	87.466
0.45500	87.451
0.45667	87.437
0.45833	87.425
0.46000	87.415
0.46167	87.407
0.46333	87.399
0.46500	87.393
0.46667	87.387
0.46833	87.382
0.47000	87.378
0.47167	87.373
0.47333	87.367
0.47500	87.361
0.47667	87.354
0.47833	87.347
0.48000	87.339
0.48167	87.331
0.48333	87.324
0.48500	87.317
0.48667	87.310
0.48833	87.304
0.49000	87.298
0.49167	87.293
0.49333	87.287
0.49500	87.283
0.49667	87.278
0.49833	87.274
0.50000	87.271
0.50167	87.268
0.50333	87.265
0.50500	87.263
0.50667	87.262
0.50833	87.261
0.51000	87.261
0.51167	87.261
0.51333	87.262
0.51500	87.264
0.51667	87.282
0.51833	87.329
0.52000	87.423
0.52167	87.579
0.52333	87.812
0.52500	88.113
0.52667	88.472
0.52833	88.874
0.53000	89.304
0.53167	89.748
0.53333	90.190
0.53500	90.617
0.53667	91.015
0.53833	91.372
0.54000	91.680
0.54167	91.949
0.54333	92.193
0.54500	92.420
0.54667	92.638
0.54833	92.852
0.55000	93.054
0.55167	93.235
0.55333	93.388
0.55500	93.507
0.55667	93.586
0.55833	93.624
0.56000	93.621
0.56167	93.583
0.56333	93.517
0.56500	93.434
0.56667	93.343
0.56833	93.254
0.57000	93.170
0.57167	93.095
0.57333	93.028
0.57500	92.970
0.57667	92.920
0.57833	92.876
0.58000	92.837
0.58167	92.803
0.58333	92.773
0.58500	92.746
0.58667	92.720
0.58833	92.695
0.59000	92.672
0.59167	92.649
0.59333	92.626
0.59500	92.604
0.59667	92.583
0.59833	92.564
0.60000	92.549
0.60167	92.538
0.60333	92.530
0.60500	92.528
0.60667	92.529
0.60833	92.534
0.61000	92.541
0.61167	92.549
0.61333	92.559
0.61500	92.568
0.61667	92.576
0.61833	92.582
0.62000	92.587
0.62167	92.590
0.62333	92.592
0.62500	92.594
0.62667	92.595
0.62833	92.596
0.63000	92.597
0.63167	92.598
0.63333	92.598
0.63500	92.598
0.63667	92.599
0.63833	92.600
0.64000	92.601
0.64167	92.603
0.64333	92.605
0.64500	92.607
0.64667	92.610
0.64833	92.614
0.65000	92.618
0.65167	92.624
0.65333	92.630
0.65500	92.637
0.65667	92.643
0.65833	92.649
0.66000	92.655
0.66167	92.660
0.66333	92.665
0.66500	92.669
0.66667	92.672
0.66833	92.675
0.67000	92.677
0.67167	92.679
0.67333	92.680
0.67500	92.682
0.67667	92.684
0.67833	92.686
0.68000	92.688
0.68167	92.691
0.68333	92.692
0.68500	92.694
0.68667	92.696
0.68833	92.698
0.69000	92.700
0.69167	92.703
0.69333	92.706
0.69500	92.710
0.69667	92.715
0.69833	92.721
0.70000	92.728
0.70167	92.736
0.70333	92.745
0.70500	92.753
0.70667	92.762
0.70833	92.769
0.71000	92.777
0.71167	92.783
0.71333	92.790
0.71500	92.795
0.71667	92.800
0.71833	92.805
0.72000	92.810
0.72167	92.814
0.72333	92.820
0.72500	92.825
0.72667	92.830
0.72833	92.836
0.73000	92.841
0.73167	92.845
0.73333	92.850
0.73500	92.854
0.73667	92.859
0.73833	92.864
0.74000	92.870
0.74167	92.875
0.74333	92.882
0.74500	92.890
0.74667	92.899
0.74833	92.910
0.75000	92.922
0.75167	92.935
0.75333	92.948
0.75500	92.962
0.75667	92.976
0.75833	92.989
0.76000	93.002
0.76167	93.015
0.76333	93.027
0.76500	93.038
0.76667	93.048
0.76833	93.058
0.77000	93.068
0.77167	93.078
0.77333	93.089
0.77500	93.100
0.77667	93.110
0.77833	93.121
0.78000	93.131
0.78167	93.141
0.78333	93.151
0.78500	93.162
0.78667	93.173
0.78833	93.183
0.79000	93.193
0.79167	93.203
0.79333	93.215
0.79500	93.228
0.79667	93.243
0.79833	93.260
0.80000	93.278
0.80167	93.296
0.80333	93.314
0.80500	93.333
0.80667	93.352
0.80833	93.371
0.81000	93.390
0.81167	93.407
0.81333	93.425
0.81500	93.441
0.81667	93.458
0.81833	93.474
0.82000	93.491
0.82167	93.509
0.82333	93.527
0.82500	93.545
0.82667	93.563
0.82833	93.582
0.83000	93.600
0.83167	93.617
0.83333	93.634
0.83500	93.651
0.83667	93.668
0.83833	93.684
0.84000	93.702
0.84167	93.720
0.84333	93.740
0.84500	93.761
0.84667	93.784
0.84833	93.808
0.85000	93.834
0.85167	93.860
0.85333	93.887
0.85500	93.914
0.85667	93.940
0.85833	93.967
0.86000	93.992
0.86167	94.017
0.86333	94.042
0.86500	94.066
0.86667	94.090
0.86833	94.114
0.87000	94.138
0.87167	94.162
0.87333	94.187
0.87500	94.212
0.87667	94.236
0.87833	94.261
0.88000	94.285
0.88167	94.309
0.88333	94.332
0.88500	94.356
0.88667	94.380
0.88833	94.406
0.89000	94.432
0.89167	94.461
0.89333	94.490
0.89500	94.521
0.89667	94.553
0.89833	94.586
0.90000	94.620
0.90167	94.653
0.90333	94.686
0.90500	94.718
0.90667	94.749
0.90833	94.779
0.91000	94.808
0.91167	94.836
0.91333	94.865
0.91500	94.893
0.91667	94.922
0.91833	94.952
0.92000	94.981
0.92167	95.011
0.92333	95.042
0.92500	95.072
0.92667	95.103
0.92833	95.133
0.93000	95.163
0.93167	95.192
0.93333	95.222
0.93500	95.252
0.93667	95.282
0.93833	95.314
0.94000	95.347
0.94167	95.381
0.94333	95.416
0.94500	95.453
0.94667	95.490
0.94833	95.528
0.95000	95.567
0.95167	95.605
0.95333	95.643
0.95500	95.680
0.95667	95.717
0.95833	95.754
0.96000	95.789
0.96167	95.825
0.96333	95.861
0.96500	95.897
0.96667	95.932
0.96833	95.967
0.97000	96.001
0.97167	96.035
0.97333	96.068
0.97500	96.102
0.97667	96.136
0.97833	96.170
0.98000	96.204
0.98167	96.239
0.98333	96.275
0.98500	96.311
0.98667	96.348
0.98833	96.387
0.99000	96.427
0.99167	96.468
0.99333	96.508
0.99500	96.549
0.99667	96.589
0.99833	96.629
1.00000	96.669
1.00167	96.709
1.00333	96.747
1.00500	96.786
1.00667	96.824
1.00833	96.861
1.01000	96.898
1.01167	96.936
1.01333	96.973
1.01500	97.010
1.01667	97.047
1.01833	97.084
1.02000	97.121
1.02167	97.157
1.02333	97.193
1.02500	97.229
1.02667	97.265
1.02833	97.301
1.03000	97.336
1.03167	97.371
1.03333	97.407
1.03500	97.443
1.03667	97.481
1.03833	97.520
1.04000	97.559
1.04167	97.599
1.04333	97.640
1.04500	97.680
1.04667	97.721
1.04833	97.763
1.05000	97.803
1.05167	97.844
1.05333	97.884
1.05500	97.924
1.05667	97.963
1.05833	98.002
1.06000	98.040
1.06167	98.078
1.06333	98.116
1.06500	98.153
1.06667	98.191
1.06833	98.228
1.07000	98.264
1.07167	98.301
1.07333	98.338
1.07500	98.375
1.07667	98.411
1.07833	98.447
1.08000	98.484
1.08167	98.520
1.08333	98.555
1.08500	98.591
1.08667	98.626
1.08833	98.661
1.09000	98.695
1.09167	98.729
1.09333	98.761
1.09500	98.793
1.09667	98.825
1.09833	98.855
1.10000	98.885
1.10167	98.914
1.10333	98.943
1.10500	98.971
1.10667	99.000
1.10833	99.029
1.11000	99.058
1.11167	99.086
1.11333	99.114
1.11500	99.142
1.11667	99.169
1.11833	99.197
1.12000	99.224
1.12167	99.251
1.12333	99.277
1.12500	99.303
1.12667	99.328
1.12833	99.354
1.13000	99.379
1.13167	99.404
1.13333	99.430
1.13500	99.455
1.13667	99.480
1.13833	99.504
1.14000	99.528
1.14167	99.551
1.14333	99.573
1.14500	99.595
1.14667	99.616
1.14833	99.637
1.15000	99.657
1.15167	99.676
1.15333	99.695
1.15500	99.714
1.15667	99.732
1.15833	99.750
1.16000	99.769
1.16167	99.787
1.16333	99.806
1.16500	99.825
1.16667	99.844
1.16833	99.863
1.17000	99.881
1.17167	99.898
1.17333	99.914
1.17500	99.930
1.17667	99.943
1.17833	99.955
1.18000	99.966
1.18167	99.975
1.18333	99.983
1.18500	99.989
1.18667	99.993
1.18833	99.997
1.19000	99.999
1.19167	100.000
1.19333	100.000
1.19500	99.999
1.19667	99.997
1.19833	99.995
1.20000	99.992
1.20167	99.989
1.20333	99.986
1.20500	99.983
1.20667	99.979
1.20833	99.976
1.21000	99.972
1.21167	99.969
1.21333	99.966
1.21500	99.962
1.21667	99.959
1.21833	99.955
1.22000	99.949
1.22167	99.942
1.22333	99.933
1.22500	99.923
1.22667	99.911
1.22833	99.898
1.23000	99.884
1.23167	99.868
1.23333	99.850
1.23500	99.832
1.23667	99.812
1.23833	99.792
1.24000	99.772
1.24167	99.751
1.24333	99.729
1.24500	99.707
1.24667	99.684
1.24833	99.661
1.25000	99.637
1.25167	99.612
1.25333	99.587
1.25500	99.562
1.25667	99.536
1.25833	99.511
1.26000	99.486
1.26167	99.462
1.26333	99.438
1.26500	99.414
1.26667	99.390
1.26833	99.364
1.27000	99.337
1.27167	99.308
1.27333	99.277
1.27500	99.244
1.27667	99.208
1.27833	99.169
1.28000	99.127
1.28167	99.083
1.28333	99.036
1.28500	98.988
1.28667	98.939
1.28833	98.890
1.29000	98.840
1.29167	98.789
1.29333	98.739
1.29500	98.688
1.29667	98.638
1.29833	98.587
1.30000	98.536
1.30167	98.486
1.30333	98.436
1.30500	98.387
1.30667	98.338
1.30833	98.289
1.31000	98.240
1.31167	98.189
1.31333	98.138
1.31500	98.085
1.31667	98.030
1.31833	97.973
1.32000	97.914
1.32167	97.852
1.32333	97.787
1.32500	97.720
1.32667	97.652
1.32833	97.582
1.33000	97.511
1.33167	97.439
1.33333	97.367
1.33500	97.294
1.33667	97.221
1.33833	97.147
1.34000	97.074
1.34167	97.000
1.34333	96.926
1.34500	96.852
1.34667	96.778
1.34833	96.704
1.35000	96.630
1.35167	96.557
1.35333	96.484
1.35500	96.412
1.35667	96.340
1.35833	96.268
1.36000	96.195
1.36167	96.121
1.36333	96.046
1.36500	95.967
1.36667	95.887
1.36833	95.803
1.37000	95.717
1.37167	95.629
1.37333	95.537
1.37500	95.444
1.37667	95.349
1.37833	95.252
1.38000	95.155
1.38167	95.057
1.38333	94.959
1.38500	94.861
1.38667	94.763
1.38833	94.664
1.39000	94.566
1.39167	94.468
1.39333	94.370
1.39500	94.273
1.39667	94.178
1.39833	94.083
1.40000	93.990
1.40167	93.896
1.40333	93.803
1.40500	93.710
1.40667	93.616
1.40833	93.520
1.41000	93.423
1.41167	93.324
1.41333	93.222
1.41500	93.117
1.41667	93.009
1.41833	92.899
1.42000	92.787
1.42167	92.674
1.42333	92.560
1.42500	92.445
1.42667	92.330
1.42833	92.215
1.43000	92.099
1.43167	91.984
1.43333	91.869
1.43500	91.755
1.43667	91.640
1.43833	91.525
1.44000	91.411
1.44167	91.297
1.44333	91.184
1.44500	91.071
1.44667	90.959
1.44833	90.848
1.45000	90.738
1.45167	90.628
1.45333	90.520
1.45500	90.411
1.45667	90.300
1.45833	90.188
1.46000	90.074
1.46167	89.956
1.46333	89.835
1.46500	89.712
1.46667	89.585
1.46833	89.457
1.47000	89.326
1.47167	89.195
1.47333	89.063
1.47500	88.931
1.47667	88.800
1.47833	88.670
1.48000	88.541
1.48167	88.412
1.48333	88.283
1.48500	88.155
1.48667	88.027
1.48833	87.899
1.49000	87.772
1.49167	87.646
1.49333	87.522
1.49500	87.399
1.49667	87.276
1.49833	87.155
1.50000	87.033
1.50167	86.911
1.50333	86.787
1.50500	86.662
1.50667	86.536
1.50833	86.407
1.51000	86.275
1.51167	86.141
1.51333	86.004
1.51500	85.866
1.51667	85.727
1.51833	85.588
1.52000	85.449
1.52167	85.310
1.52333	85.172
1.52500	85.033
1.52667	84.895
1.52833	84.758
1.53000	84.620
1.53167	84.483
1.53333	84.346
1.53500	84.209
1.53667	84.073
1.53833	83.938
1.54000	83.804
1.54167	83.672
1.54333	83.541
1.54500	83.411
1.54667	83.283
1.54833	83.154
1.55000	83.025
1.55167	82.895
1.55333	82.763
1.55500	82.630
1.55667	82.494
1.55833	82.355
1.56000	82.214
1.56167	82.071
1.56333	81.927
1.56500	81.782
1.56667	81.637
1.56833	81.493
1.57000	81.349
1.57167	81.205
1.57333	81.063
1.57500	80.920
1.57667	80.778
1.57833	80.637
1.58000	80.495
1.58167	80.354
1.58333	80.213
1.58500	80.073
1.58667	79.934
1.58833	79.796
1.59000	79.660
1.59167	79.524
1.59333	79.390
1.59500	79.257
1.59667	79.124
1.59833	78.990
1.60000	78.856
1.60167	78.720
1.60333	78.582
1.60500	78.443
1.60667	78.301
1.60833	78.159
1.61000	78.015
1.61167	77.870
1.61333	77.726
1.61500	77.582
1.61667	77.438
1.61833	77.295
1.62000	77.152
1.62167	77.011
1.62333	76.870
1.62500	76.730
1.62667	76.590
1.62833	76.451
1.63000	76.312
1.63167	76.174
1.63333	76.038
1.63500	75.903
1.63667	75.770
1.63833	75.639
1.64000	75.508
1.64167	75.378
1.64333	75.247
1.64500	75.116
1.64667	74.983
1.64833	74.849
1.65000	74.714
1.65167	74.577
1.65333	74.438
1.65500	74.298
1.65667	74.158
1.65833	74.017
1.66000	73.877
1.66167	73.738
1.66333	73.601
1.66500	73.465
1.66667	73.330
1.66833	73.195
1.67000	73.061
1.67167	72.928
1.67333	72.795
1.67500	72.662
1.67667	72.530
1.67833	72.398
1.68000	72.267
1.68167	72.137
1.68333	72.008
1.68500	71.882
1.68667	71.757
1.68833	71.632
1.69000	71.508
1.69167	71.384
1.69333	71.260
1.69500	71.134
1.69667	71.007
1.69833	70.879
1.70000	70.750
1.70167	70.619
1.70333	70.487
1.70500	70.355
1.70667	70.223
1.70833	70.091
1.71000	69.961
1.71167	69.832
1.71333	69.704
1.71500	69.578
1.71667	69.452
1.71833	69.328
1.72000	69.203
1.72167	69.079
1.72333	68.956
1.72500	68.833
1.72667	68.711
1.72833	68.589
1.73000	68.468
1.73167	68.349
1.73333	68.232
1.73500	68.115
1.73667	68.000
1.73833	67.887
1.74000	67.774
1.74167	67.661
1.74333	67.547
1.74500	67.434
1.74667	67.319
1.74833	67.203
1.75000	67.085
1.75167	66.967
1.75333	66.848
1.75500	66.729
1.75667	66.610
1.75833	66.492
1.76000	66.374
1.76167	66.258
1.76333	66.144
1.76500	66.030
1.76667	65.917
1.76833	65.805
1.77000	65.694
1.77167	65.584
1.77333	65.474
1.77500	65.364
1.77667	65.256
1.77833	65.148
1.78000	65.042
1.78167	64.937
1.78333	64.833
1.78500	64.730
1.78667	64.628
1.78833	64.526
1.79000	64.424
1.79167	64.322
1.79333	64.218
1.79500	64.115
1.79667	64.010
1.79833	63.905
1.80000	63.800
1.80167	63.695
1.80333	63.590
1.80500	63.487
1.80667	63.384
1.80833	63.283
1.81000	63.183
1.81167	63.084
1.81333	62.986
1.81500	62.889
1.81667	62.792
1.81833	62.695
1.82000	62.600
1.82167	62.504
1.82333	62.410
1.82500	62.316
1.82667	62.224
1.82833	62.132
1.83000	62.042
1.83167	61.952
1.83333	61.864
1.83500	61.776
1.83667	61.689
1.83833	61.601
1.84000	61.513
1.84167	61.424
1.84333	61.334
1.84500	61.245
1.84667	61.155
1.84833	61.065
1.85000	60.976
1.85167	60.887
1.85333	60.798
1.85500	60.711
1.85667	60.625
1.85833	60.540
1.86000	60.456
1.86167	60.373
1.86333	60.291
1.86500	60.209
1.86667	60.127
1.86833	60.046
1.87000	59.965
1.87167	59.885
1.87333	59.806
1.87500	59.728
1.87666	59.651
1.87833	59.574
1.88000	59.499
1.88166	59.424
1.88333	59.351
1.88500	59.278
1.88666	59.205
1.88833	59.132
1.89000	59.059
1.89166	58.986
1.89333	58.912
1.89500	58.838
1.89666	58.764
1.89833	58.691
1.90000	58.617
1.90166	58.544
1.90333	58.472
1.90500	58.401
1.90666	58.330
1.90833	58.260
1.91000	58.191
1.91166	58.122
1.91333	58.054
1.91500	57.986
1.91666	57.918
1.91833	57.851
1.92000	57.785
1.92166	57.718
1.92333	57.653
1.92500	57.589
1.92666	57.525
1.92833	57.463
1.93000	57.401
1.93166	57.341
1.93333	57.280
1.93500	57.220
1.93666	57.159
1.93833	57.099
1.94000	57.038
1.94166	56.977
1.94333	56.917
1.94500	56.856
1.94666	56.795
1.94833	56.735
1.95000	56.675
1.95166	56.616
1.95333	56.558
1.95500	56.501
1.95666	56.444
1.95833	56.388
1.96000	56.333
1.96166	56.278
1.96333	56.224
1.96500	56.170
1.96666	56.117
1.96833	56.065
1.97000	56.013
1.97166	55.962
1.97333	55.912
1.97500	55.863
1.97666	55.814
1.97833	55.766
1.98000	55.719
1.98166	55.672
1.98333	55.625
1.98500	55.577
1.98666	55.529
1.98833	55.481
1.99000	55.433
1.99166	55.385
1.99333	55.337
1.99500	55.289
1.99666	55.240
1.99833	55.192
2.00000	55.145
2.00166	55.098
2.00333	55.052
2.00500	55.006
2.00667	54.961
2.00833	54.916
2.01000	54.871
2.01167	54.827
2.01333	54.783
2.01500	54.740
2.01667	54.698
2.01833	54.656
2.02000	54.615
2.02167	54.574
2.02333	54.534
2.02500	54.494
2.02667	54.456
2.02833	54.417
2.03000	54.379
2.03167	54.341
2.03333	54.303
2.03500	54.265
2.03667	54.226
2.03833	54.187
2.04000	54.148
2.04167	54.109
2.04333	54.070
2.04500	54.030
2.04667	53.991
2.04833	53.952
2.05000	53.914
2.05167	53.877
2.05334	53.840
2.05500	53.804
2.05667	53.768
2.05834	53.733
2.06000	53.698
2.06167	53.663
2.06334	53.629
2.06500	53.595
2.06667	53.561
2.06834	53.528
2.07000	53.494
2.07167	53.461
2.07334	53.429
2.07500	53.397
2.07667	53.365
2.07834	53.334
2.08000	53.302
2.08167	53.270
2.08334	53.238
2.08500	53.206
2.08667	53.174
2.08834	53.142
2.09000	53.111
2.09167	53.079
2.09334	53.048
2.09500	53.017
2.09667	52.987
2.09834	52.957
2.10001	52.928
2.10167	52.900
2.10334	52.872
2.10501	52.844
2.10667	52.817
2.10834	52.789
2.11001	52.762
2.11167	52.735
2.11334	52.709
2.11501	52.682
2.11667	52.655
2.11834	52.629
2.12001	52.603
2.12167	52.577
2.12334	52.551
2.12501	52.526
2.12667	52.502
2.12834	52.477
2.13001	52.453
2.13167	52.428
2.13334	52.404
2.13501	52.379
2.13667	52.355
2.13834	52.330
2.14001	52.305
2.14167	52.281
2.14334	52.256
2.14501	52.231
2.14668	52.207
2.14834	52.184
2.15001	52.161
2.15168	52.138
2.15334	52.115
2.15501	52.093
2.15668	52.070
2.15834	52.048
2.16001	52.027
2.16168	52.005
2.16334	51.984
2.16501	51.963
2.16668	51.942
2.16834	51.922
2.17001	51.901
2.17168	51.881
2.17334	51.862
2.17501	51.842
2.17668	51.823
2.17834	51.803
2.18001	51.783
2.18168	51.762
2.18334	51.742
2.18501	51.722
2.18668	51.701
2.18834	51.681
2.19001	51.660
2.19168	51.640
2.19335	51.619
2.19501	51.599
2.19668	51.580
2.19835	51.561
2.20001	51.542
2.20168	51.524
2.20335	51.505
2.20501	51.488
2.20668	51.470
2.20835	51.454
2.21001	51.437
2.21168	51.421
2.21335	51.405
2.21501	51.390
2.21668	51.375
2.21835	51.360
2.22001	51.346
2.22168	51.331
2.22335	51.316
2.22501	51.301
2.22668	51.285
2.22835	51.269
2.23001	51.253
2.23168	51.237
2.23335	51.220
2.23501	51.204
2.23668	51.187
2.23835	51.171
2.24002	51.155
2.24168	51.140
2.24335	51.124
2.24502	51.110
2.24668	51.095
2.24835	51.081
2.25002	51.067
2.25168	51.052
2.25335	51.038
2.25502	51.024
2.25668	51.010
2.25835	50.996
2.26002	50.982
2.26168	50.968
2.26335	50.954
2.26502	50.940
2.26668	50.926
2.26835	50.912
2.27002	50.899
2.27168	50.886
2.27335	50.872
2.27502	50.858
2.27668	50.843
2.27835	50.828
2.28002	50.813
2.28168	50.797
2.28335	50.782
2.28502	50.766
2.28668	50.750
2.28835	50.734
2.29002	50.718
2.29169	50.704
2.29335	50.689
2.29502	50.676
2.29669	50.662
2.29835	50.648
2.30002	50.635
2.30169	50.621
2.30335	50.608
2.30502	50.595
2.30669	50.581
2.30835	50.569
2.31002	50.556
2.31169	50.544
2.31335	50.532
2.31502	50.520
2.31669	50.509
2.31835	50.497
2.32002	50.485
2.32169	50.472
2.32335	50.459
2.32502	50.445
2.32669	50.431
2.32835	50.417
2.33002	50.403
2.33169	50.389
2.33335	50.375
2.33502	50.362
2.33669	50.349
2.33836	50.337
2.34002	50.326
2.34169	50.315
2.34336	50.304
2.34502	50.293
2.34669	50.282
2.34836	50.270
2.35002	50.259
2.35169	50.248
2.35336	50.237
2.35502	50.226
2.35669	50.215
2.35836	50.204
2.36002	50.194
2.36169	50.183
2.36336	50.173
2.36502	50.163
2.36669	50.152
2.36836	50.142
2.37002	50.132
2.37169	50.121
2.37336	50.110
2.37502	50.099
2.37669	50.086
2.37836	50.074
2.38002	50.062
2.38169	50.050
2.38336	50.038
2.38503	50.026
2.38669	50.014
2.38836	50.003
2.39003	49.992
2.39169	49.981
2.39336	49.971
2.39503	49.962
2.39669	49.952
2.39836	49.943
2.40003	49.934
2.40169	49.925
2.40336	49.916
2.40503	49.908
2.40669	49.899
2.40836	49.891
2.41003	49.883
2.41169	49.875
2.41336	49.868
2.41503	49.860
2.41669	49.853
2.41836	49.845
2.42003	49.838
2.42169	49.829
2.42336	49.820
2.42503	49.810
2.42669	49.800
2.42836	49.790
2.43003	49.780
2.43170	49.770
2.43336	49.760
2.43503	49.750
2.43670	49.740
2.43836	49.731
2.44003	49.722
2.44170	49.713
2.44336	49.705
2.44503	49.696
2.44670	49.687
2.44836	49.678
2.45003	49.669
2.45170	49.660
2.45336	49.651
2.45503	49.641
2.45670	49.632
2.45836	49.623
2.46003	49.613
2.46170	49.604
2.46336	49.596
2.46503	49.587
2.46670	49.578
2.46836	49.569
2.47003	49.560
2.47170	49.551
2.47336	49.542
2.47503	49.533
2.47670	49.524
2.47837	49.517
2.48003	49.510
2.48170	49.504
2.48337	49.498
2.48503	49.493
2.48670	49.489
2.48837	49.485
2.49003	49.481
2.49170	49.477
2.49337	49.473
2.49503	49.468
2.49670	49.463
2.49837	49.456
2.50003	49.450
2.50170	49.443
2.50337	49.435
2.50503	49.428
2.50670	49.420
2.50837	49.413
2.51003	49.405
2.51170	49.398
2.51337	49.391
2.51503	49.384
2.51670	49.378
2.51837	49.372
2.52003	49.365
2.52170	49.358
2.52337	49.351
2.52504	49.344
2.52670	49.338
2.52837	49.332
2.53004	49.326
2.53170	49.321
2.53337	49.316
2.53504	49.311
2.53670	49.307
2.53837	49.304
2.54004	49.301
2.54170	49.298
2.54337	49.295
2.54504	49.291
2.54670	49.287
2.54837	49.282
2.55004	49.277
2.55170	49.271
2.55337	49.266
2.55504	49.260
2.55670	49.255
2.55837	49.250
2.56004	49.246
2.56170	49.241
2.56337	49.237
2.56504	49.232
2.56670	49.227
2.56837	49.221
2.57004	49.214
2.57171	49.206
2.57337	49.199
2.57504	49.193
2.57671	49.186
2.57837	49.181
2.58004	49.176
2.58171	49.171
2.58337	49.168
2.58504	49.166
2.58671	49.164
2.58837	49.162
2.59004	49.160
2.59171	49.158
2.59337	49.156
2.59504	49.153
2.59671	49.150
2.59837	49.148
2.60004	49.145
2.60171	49.142
2.60337	49.140
2.60504	49.137
2.60671	49.134
2.60837	49.131
2.61004	49.128
2.61171	49.126
2.61337	49.123
2.61504	49.121
2.61671	49.119
2.61838	49.116
2.62004	49.114
2.62171	49.112
2.62338	49.110
2.62504	49.109
2.62671	49.109
2.62838	49.109
2.63004	49.110
2.63171	49.111
2.63338	49.114
2.63504	49.117
2.63671	49.121
2.63838	49.127
2.64004	49.133
2.64171	49.139
2.64338	49.145
2.64504	49.152
2.64671	49.158
2.64838	49.165
2.65004	49.172
2.65171	49.180
2.65338	49.189
2.65504	49.198
2.65671	49.207
2.65838	49.217
2.66004	49.228
2.66171	49.238
2.66338	49.248
2.66505	49.259
2.66671	49.269
2.66838	49.280
2.67005	49.291
2.67171	49.304
2.67338	49.318
2.67505	49.335
2.67671	49.353
2.67838	49.374
2.68005	49.397
2.68171	49.422
2.68338	49.450
2.68505	49.479
2.68671	49.509
2.68838	49.541
2.69005	49.573
2.69171	49.607
2.69338	49.641
2.69505	49.677
2.69671	49.715
2.69838	49.753
2.70005	49.793
2.70171	49.835
2.70338	49.877
2.70505	49.920
2.70671	49.964
2.70838	50.007
2.71005	50.051
2.71171	50.095
2.71338	50.138
2.71505	50.182
2.71672	50.228
2.71838	50.275
2.72005	50.324
2.72172	50.378
2.72338	50.435
2.72505	50.497
2.72672	50.563
2.72838	50.634
2.73005	50.708
2.73172	50.787
2.73338	50.868
2.73505	50.952
2.73672	51.038
2.73838	51.125
2.74005	51.214
2.74172	51.304
2.74338	51.395
2.74505	51.489
2.74672	51.584
2.74838	51.681
2.75005	51.781
2.75172	51.881
2.75338	51.983
2.75505	52.084
2.75672	52.186
2.75838	52.287
2.76005	52.388
2.76172	52.489
2.76339	52.590
2.76505	52.692
2.76672	52.797
2.76839	52.906
2.77005	53.021
2.77172	53.142
2.77339	53.270
2.77505	53.405
2.77672	53.546
2.77839	53.694
2.78005	53.847
2.78172	54.004
2.78339	54.164
2.78505	54.326
2.78672	54.490
2.78839	54.655
2.79005	54.820
2.79172	54.987
2.79339	55.156
2.79505	55.327
2.79672	55.501
2.79839	55.676
2.80005	55.852
2.80172	56.029
2.80339	56.206
2.80505	56.382
2.80672	56.556
2.80839	56.730
2.81006	56.904
2.81172	57.077
2.81339	57.251
2.81506	57.427
2.81672	57.607
2.81839	57.791
2.82006	57.982
2.82172	58.181
2.82339	58.386
2.82506	58.599
2.82672	58.817
2.82839	59.041
2.83006	59.269
2.83172	59.500
2.83339	59.733
2.83506	59.968
2.83672	60.203
2.83839	60.440
2.84006	60.677
2.84172	60.914
2.84339	61.153
2.84506	61.393
2.84672	61.634
2.84839	61.876
2.85006	62.117
2.85172	62.357
2.85339	62.596
2.85506	62.833
2.85673	63.067
2.85839	63.301
2.86006	63.534
2.86173	63.766
2.86339	63.999
2.86506	64.235
2.86673	64.473
2.86839	64.717
2.87006	64.966
2.87173	65.221
2.87339	65.482
2.87506	65.747
2.87673	66.017
2.87839	66.290
2.88006	66.566
2.88173	66.844
2.88339	67.122
2.88506	67.400
2.88673	67.678
2.88839	67.956
2.89006	68.234
2.89173	68.512
2.89339	68.790
2.89506	69.068
2.89673	69.346
2.89839	69.622
2.90006	69.897
2.90173	70.170
2.90340	70.439
2.90506	70.706
2.90673	70.970
2.90840	71.233
2.91006	71.494
2.91173	71.755
2.91340	72.017
2.91506	72.281
2.91673	72.548
2.91840	72.819
2.92006	73.096
2.92173	73.376
2.92340	73.660
2.92506	73.947
2.92673	74.236
2.92840	74.527
2.93006	74.817
2.93173	75.108
2.93340	75.397
2.93506	75.685
2.93673	75.973
2.93840	76.259
2.94006	76.544
2.94173	76.828
2.94340	77.112
2.94506	77.394
2.94673	77.674
2.94840	77.952
2.95007	78.226
2.95173	78.496
2.95340	78.764
2.95507	79.030
2.95673	79.294
2.95840	79.557
2.96007	79.818
2.96173	80.078
2.96340	80.339
2.96507	80.600
2.96673	80.863
2.96840	81.129
2.97007	81.396
2.97173	81.664
2.97340	81.932
2.97507	82.199
2.97673	82.466
2.97840	82.733
2.98007	82.999
2.98173	83.263
2.98340	83.525
2.98507	83.786
2.98673	84.044
2.98840	84.301
2.99007	84.556
2.99173	84.809
2.99340	85.059
2.99507	85.307
2.99674	85.551
2.99840	85.791
3.00007	86.028
3.00174	86.263
3.00340	86.495
3.00507	86.727
3.00674	86.957
3.00840	87.185
3.01007	87.413
3.01174	87.639
3.01340	87.864
3.01507	88.090
3.01674	88.314
3.01840	88.537
3.02007	88.757
3.02174	88.974
3.02340	89.187
3.02507	89.397
3.02674	89.604
3.02840	89.808
3.03007	90.009
3.03174	90.208
3.03340	90.404
3.03507	90.598
3.03674	90.789
3.03840	90.977
3.04007	91.162
3.04174	91.344
3.04341	91.523
3.04507	91.698
3.04674	91.869
3.04841	92.037
3.05007	92.203
3.05174	92.367
3.05341	92.530
3.05507	92.691
3.05674	92.850
3.05841	93.008
3.06007	93.163
3.06174	93.316
3.06341	93.467
3.06507	93.615
3.06674	93.760
3.06841	93.901
3.07007	94.037
3.07174	94.170
3.07341	94.298
3.07507	94.423
3.07674	94.546
3.07841	94.667
3.08007	94.785
3.08174	94.901
3.08341	95.015
3.08507	95.126
3.08674	95.236
3.08841	95.344
3.09008	95.450
3.09174	95.553
3.09341	95.654
3.09508	95.753
3.09674	95.851
3.09841	95.947
3.10008	96.042
3.10174	96.136
3.10341	96.229
3.10508	96.320
3.10674	96.410
3.10841	96.498
3.11008	96.584
3.11174	96.669
3.11341	96.751
3.11508	96.832
3.11674	96.909
3.11841	96.983
3.12008	97.055
3.12174	97.125
3.12341	97.192
3.12508	97.258
3.12674	97.323
3.12841	97.386
3.13008	97.447
3.13174	97.507
3.13341	97.566
3.13508	97.623
3.13674	97.680
3.13841	97.735
3.14008	97.788
3.14175	97.841
3.14341	97.892
3.14508	97.942
3.14675	97.991
3.14841	98.040
3.15008	98.088
3.15175	98.136
3.15341	98.184
3.15508	98.230
3.15675	98.276
3.15841	98.322
3.16008	98.366
3.16175	98.409
3.16341	98.450
3.16508	98.489
3.16675	98.526
3.16841	98.561
3.17008	98.594
3.17175	98.625
3.17341	98.655
3.17508	98.682
3.17675	98.709
3.17841	98.733
3.18008	98.757
3.18175	98.780
3.18341	98.802
3.18508	98.823
3.18675	98.844
3.18842	98.864
3.19008	98.884
3.19175	98.902
3.19342	98.920
3.19508	98.938
3.19675	98.955
3.19842	98.973
3.20008	98.989
3.20175	99.005
3.20342	99.020
3.20508	99.034
3.20675	99.048
3.20842	99.061
3.21008	99.073
3.21175	99.085
3.21342	99.096
3.21508	99.105
3.21675	99.114
3.21842	99.121
3.22008	99.128
3.22175	99.134
3.22342	99.140
3.22508	99.144
3.22675	99.148
3.22842	99.150
3.23008	99.152
3.23175	99.153
3.23342	99.153
3.23509	99.153
3.23675	99.153
3.23842	99.152
3.24009	99.151
3.24175	99.150
3.24342	99.148
3.24509	99.146
3.24675	99.144
3.24842	99.140
3.25009	99.136
3.25175	99.130
3.25342	99.124
3.25509	99.116
3.25675	99.109
3.25842	99.101
3.26009	99.093
3.26175	99.085
3.26342	99.077
3.26509	99.069
3.26675	99.061
3.26842	99.052
3.27009	99.043
3.27175	99.034
3.27342	99.024
3.27509	99.012
3.27675	98.999
3.27842	98.986
3.28009	98.971
3.28176	98.957
3.28342	98.942
3.28509	98.927
3.28676	98.914
3.28842	98.901
3.29009	98.889
3.29176	98.877
3.29342	98.866
3.29509	98.853
3.29676	98.840
3.29842	98.826
3.30009	98.811
3.30176	98.795
3.30342	98.778
3.30509	98.761
3.30676	98.744
3.30842	98.725
3.31009	98.707
3.31176	98.689
3.31342	98.670
3.31509	98.652
3.31676	98.633
3.31842	98.613
3.32009	98.592
3.32176	98.570
3.32342	98.546
3.32509	98.522
3.32676	98.497
3.32843	98.472
3.33009	98.447
3.33176	98.423
3.33343	98.399
3.33509	98.377
3.33676	98.355
3.33843	98.334
3.34009	98.313
3.34176	98.293
3.34343	98.272
3.34509	98.249
3.34676	98.226
3.34843	98.202
3.35009	98.176
3.35176	98.150
3.35343	98.124
3.35509	98.097
3.35676	98.071
3.35843	98.046
3.36009	98.022
3.36176	97.998
3.36343	97.975
3.36509	97.953
3.36676	97.931
3.36843	97.908
3.37009	97.885
3.37176	97.860
3.37343	97.835
3.37510	97.809
3.37676	97.783
3.37843	97.757
3.38010	97.731
3.38176	97.705
3.38343	97.680
3.38510	97.655
3.38676	97.630
3.38843	97.606
3.39010	97.582
3.39176	97.558
3.39343	97.533
3.39510	97.507
3.39676	97.481
3.39843	97.454
3.40010	97.427
3.40176	97.400
3.40343	97.374
3.40510	97.349
3.40676	97.324
3.40843	97.300
3.41010	97.277
3.41176	97.255
3.41343	97.234
3.41510	97.213
3.41676	97.191
3.41843	97.170
3.42010	97.147
3.42177	97.123
3.42343	97.100
3.42510	97.075
3.42677	97.051
3.42843	97.027
3.43010	97.002
3.43177	96.978
3.43343	96.954
3.43510	96.930
3.43677	96.907
3.43843	96.883
3.44010	96.860
3.44177	96.837
3.44343	96.814
3.44510	96.790
3.44677	96.766
3.44843	96.741
3.45010	96.717
3.45177	96.693
3.45343	96.670
3.45510	96.647
3.45677	96.626
3.45843	96.604
3.46010	96.583
3.46177	96.562
3.46343	96.542
3.46510	96.523
3.46677	96.503
3.46844	96.482
3.47010	96.461
3.47177	96.440
3.47344	96.418
3.47510	96.396
3.47677	96.374
3.47844	96.353
3.48010	96.331
3.48177	96.311
3.48344	96.290
3.48510	96.270
3.48677	96.250
3.48844	96.231
3.49010	96.211
3.49177	96.192
3.49344	96.172
3.49510	96.151
3.49677	96.131
3.49844	96.113
3.50010	96.104
3.50177	96.063
}
}
}
[FUNCTION]
{
Function	0
Description	ANALOG
}
[FUNCTION]
{
Function	0
Description	ANALOG
}
[ACCEPTANCE CRITERIA]
{
Threshold Mode (MS+)	Relative
Threshold (MS+)	5.00
Confirmation Threshold (MS+)	10.00
 	 
Threshold Mode (MS-)	Relative
Threshold (MS-)	5.00
Confirmation Threshold (MS-)	10.00
 	 
 	 
Accurate Mass Primary Threshold	False
Accurate Mass Primary Threshold Value (PPM)	5.00
Accurate Mass Secondary Threshold	False
Accurate Mass Secondary Threshold Value (PPM)	10.00
 	 
 	 
Enable Chromatogram Test	True
Chromatogram Test Primary Threshold (%)	10
Chromatogram Test Use Secondary Threshold	True
Chromatogram Test Secondary Threshold (%)	5
 	 
 	 
Use iFit (norm) Value as Confirmation Test	False
iFit Test Primary Threshold
iFit Test Use Secondary Threshold	False
iFit Test Secondary Threshold
 	 
 	 
Chromatogram Internal Standard Enabled	False
IS Function	1
IS Adducted Mass	0.00
IS Mass Window	0.00
IS Intensity Threshold	0.00
}
[INLET PARAMETERS]
{
-- HEADER --
Header
Acquired File Name:   Carreira - RG-B-027d_15'152985-1_20201127
Acquired Date:        27-Nov-2020
Acquired Time:        16:01:50
Job Code:             Carreira - RG-B-027d_15'152985
Task Code:            
User Name:            Carreira - xxx
Laboratory Name:      
Instrument:           ACQ-SQD2#LCA574
Conditions:           
Submitter:            Carreira - xxx
SampleID:             Carreira - RG-B-027d_15'152985-1_20201127
Bottle Number:        2:9
Description:          RG-B-027d_15'
-- END HEADER --
-- CALIBRATION --

Instrument Calibration: 
Calibration File: E:\Masslynx Projects\MoBiAS open access.PRO\ACQUDB\Calibration_20170613.cal
Parameters
MS1 Static:       
Mass:             20 Da to 3023 Da.
Resolution:       11.6/15.0
Ion Energy:       -0.6
Reference File:   Naics
Acquisition File: STAT
MS1 Scanning:     
Mass:             10 Da to 3072 Da.
Resolution:       11.6/15.0
Ion Energy:       -0.6
Reference File:   Naics
Acquisition File: SCN
MS1 Scan Speed Compensation:   
Scan:             100 to 15002 amu/sec.
Resolution:       11.6/15.0
Ion Energy:       -0.6
Reference File:   Naics
Acquisition File: FAST
Calibration Time: 18:46
Calibration Date: 06/13/17
Coefficients
MS1 Static:       -0.000000000000*x^4 + 0.000000000101*x^3 + -0.000000215959*x^2 + 1.000397866885*x +-0.275485390725
Function 1:       -0.000000000000*x^4 + 0.000000000367*x^3 + -0.000000556238*x^2 + 1.000461201100*x +-0.886479778034
Function 2:       -0.000000000000*x^4 + 0.000000000367*x^3 + -0.000000556238*x^2 + 1.000461201100*x +-0.886479778034
Function 3:       None

-- END CALIBRATION --
-- TUNE --

-- END TUNE --
-- MS --


Parameters for E:\Masslynx Projects\MoBiAS open access.PRO\ACQUDB\FAST_HighMass_From500o3072Da_PosNeg.EXP

Data Processing:
SIR / MRM Chromatogram Spike Removal	ON
SIR / MRM Smoothing		OFF
Smoothing window size (scans)	3
Number of smooths		2


Prescan Statistics:
Initial Average Intensity	0.0053
Initial Average Std Dev		0.1406
Bunch Zero Level		0.0000
Bunch Std Dev			0.0000
Bunch Threshold			0.0001
Spike Removal Std Dev		0.0003


Method Events:
Initial Stop Flow:	No Change
Initial Switch 2:	No Change
Initial Switch 3:	No Change
Initial Switch 4:	No Change
Initial Infusion:	No Change
Initial Flow State:	Waste
Initial Flow Rate:	5
Initial Reservoir:	No Action
API Probe Delay Temp:	20
Initial Refill:		No Action
Timed Events Enabled
Event	Time(Sec)	Name		Action
1	0.00		Flow State	Waste
2	30.00		Flow State	LC
3	210.00		Flow State	Waste


Source Information:
Type - ESI
Status - Option Connector Disconnected

Ion Count Threshold:	30.0000

Instrument Parameters - Function 1:
Parameter File - E:\Masslynx Projects\MoBiAS open access.PRO\ACQUDB\Instrument_OA_settings_15Dec2017.IPR
Polarity	ES+
Calibration	Dynamic 1
Capillary (kV)	3.50
Cone (V)	30.00
RF (V)	2.50
Extractor (V)	3.00
Source Temperature (°C)	150
Desolvation Temperature (°C)	350
Cone Gas Flow (L/Hr)	50
Desolvation Gas Flow (L/Hr)	1000
LM 1 Resolution	13.40
HM 1 Resolution	14.20
Ion Energy 1	-0.40
Gain	1.00
Active Reservoir	B
Cone Energy Ramp :Disabled
Probe Temperature Ramp :Disabled
Collision Energy Ramp :Enabled

Instrument Parameters - Function 2:
Parameter File - E:\Masslynx Projects\MoBiAS open access.PRO\ACQUDB\Instrument_OA_settings_15Dec2017.IPR
Polarity	ES-
Calibration	Dynamic 1
Capillary (kV)	2.50
Cone (V)	40.00
RF (V)	2.50
Extractor (V)	3.00
Source Temperature (°C)	150
Desolvation Temperature (°C)	350
Cone Gas Flow (L/Hr)	50
Desolvation Gas Flow (L/Hr)	1000
LM 1 Resolution	15.00
HM 1 Resolution	15.00
Ion Energy 1	0.10
Gain	1.00
Active Reservoir	B
Cone Energy Ramp :Disabled
Probe Temperature Ramp :Disabled
Collision Energy Ramp :Enabled


Engineers Settings:
Low Mass Position       	517
High Mass Position      	426
Low Mass Resolution     	515
High Mass Resolution    	444
Resolution Linearity    	800
High Mass DC Balance    	-0.20
DC Polarity             	Positive
HM RF Lens Correction + 	0.00
HM RF Lens Correction - 	0.00


   Instrument Readbacks   
Capillary (kV)	0.71
Cone (V)	12.94
Extractor (V)	2.20
Source Temperature (°C)	147
Desolvation Temperature (°C)	348
Cone Gas Flow (L/Hr)	50
Desolvation Gas Flow (L/Hr)	993


Inter-scan delays:
Automatic Mode
MS Delay Table
         R     delay
<=   1.000     0.003
<=   1.500     0.004
<=   3.000     0.005
<=   7.000     0.007
<=  11.000     0.009
<=  30.000     0.010
>   30.000     0.011


-- END MS --
-- INLET --


ACE Experimental Record


Inlet Method File: e:\masslynx projects\mobias open access.pro\acqudb\fast_acn_h2o_fullrange_splitter_off_neu

-------------------   Prerun method parameters   ---------------

-- PUMP --

Waters GI Pump
1 -------------------------------------------- 
QSM 
 Solvent A Name:  
 Solvent B Name:  
 Solvent C Name:  
 Solvent D Name:  
 Low Pressure Limit: 0.000 bar
 High Pressure Limit: 1034.200 bar
 Seal Wash Period: 5.00 min
 [Gradient Table]
  Time(min) Flow Rate(mL/min) %A %B %C %D Curve 
 1. Initial 0.500 98.0 2.0 0.0 0.0 Initial 
 2. 2.00 0.500 98.0 2.0 0.0 0.0 6 
 Comment:  
 Flow Ramp Rate: 0.45 min
 D Solvent Selection (if supported): No Change 
 System Pressure Data Channel: Yes 
 Flow Rate Data Channel: No 
 %A Data Channel: No 
 %B Data Channel: No 
 %C Data Channel: No 
 %D Data Channel: No 
 Primary Data Channel: No 
 Accumulator Data Channel: No 
 Degasser Data Channel: No 
 Gradient Start: At Injection 
 Gradient Start Volume: 0 uL
 Gradient Start Time: 0.00 min
 Participate in pre-analysis: No 
2 -------------------------------------------- 
ISM 
 2.00     1 1 1 1     0 15000 5.00 System   Initial 0.500 Initial       0.45 0 50 uL   (flow <= 2.000 mL/min) 0 Solvent Manager 2.000 0 0 0 0 0 false false false false false false false false false false true  0   0   0     0 true 7.00 6.00 7.00    Initial 0.500 7.00 Initial 0 Initial   0 1 2 3 At Injection 0 0.00 false 
Method Comments...
 Comment:   

-- END PUMP --

-- DETECTOR -- 

Waters Acquity CM

 Target Column Temperature: 40.0 °C
 Temperature Alarm Band: 5.0 °C
 Shutdown all columns: No 
 Column Valve Position: Column 1 
 Equilibration Time: 0.3 min
 External Valve 1: No Change 
 External Valve 2: No Change 
 External Valve 3: No Change 
 Comment:  
 Column Temperature Data Channel: No 
 Preheater Temperature Data Channel: No 


-- END DETECTOR --

-- DETECTOR -- 

Waters Acquity PDA

 Run Time: 2.00 min
 PDA Detector Type: UPLC eLambda 800 nm 
 Lamp: On 
 Sampling Rate: 10 points/sec
 Filter Time Constant: 0.2000 sec
 Exposure Time: Auto msec
 Negative Absorbance Margin: -0.07 AU
 Interpolate 656 nm Line Region: No 
 Interpolate 2nd order filter Region: No 
 Use UV Blocking Filter: No 
3D Channel...
 Range: 210  - 600  
 Resolution: 1.2 nm
Channel 1...
 Data Mode: Absorbance at 220  
 Resolution: 4.8 nm
Channel 2...
 Data Mode: Absorbance at 254  
 Resolution: 4.8 nm
 Initial Switch 1: No Change 
 Pulse Width: 1.0 sec
 Rect Wave Period: 0.2 sec
 Run Events: Yes 
 [Event Table]
  Time(min) Event  Channel 
 1. 0.10 Event Out Off  


-- END DETECTOR --

----------------------------  oOo  -----------------------------

---------------------   Run method parameters   ----------------

-- PUMP --

Waters GI Pump
1 -------------------------------------------- 
QSM 
 Solvent A Name:  
 Solvent B Name:  
 Solvent C Name:  
 Solvent D Name:  
 Low Pressure Limit: 0.000 bar
 High Pressure Limit: 1034.200 bar
 Seal Wash Period: 5.00 min
 [Gradient Table]
  Time(min) Flow Rate(mL/min) %A %B %C %D Curve 
 1. Initial 0.500 98.0 2.0 0.0 0.0 Initial 
 2. 1.00 0.500 2.0 98.0 0.0 0.0 6 
 3. 2.00 0.500 2.0 98.0 0.0 0.0 6 
 4. 2.10 0.500 98.0 2.0 0.0 0.0 6 
 5. 3.50 0.500 98.0 2.0 0.0 0.0 6 
 Comment:  
 Flow Ramp Rate: 0.45 min
 D Solvent Selection (if supported): No Change 
 System Pressure Data Channel: Yes 
 Flow Rate Data Channel: No 
 %A Data Channel: No 
 %B Data Channel: No 
 %C Data Channel: No 
 %D Data Channel: No 
 Primary Data Channel: No 
 Accumulator Data Channel: No 
 Degasser Data Channel: No 
 Gradient Start: At Injection 
 Gradient Start Volume: 0 uL
 Gradient Start Time: 0.00 min
 Participate in pre-analysis: No 
2 -------------------------------------------- 
ISM 
 3.50     1 1 1 1     0 15000 5.00 System   Initial 0.050 Initial       0.45 0 50 uL   (flow <= 2.000 mL/min) 0 Solvent Manager 2.000 0 0 0 0 0 false false false false false false false false false false true  0   0   0     0 true 7.00 6.00 7.00    Initial 0.500 7.00 Initial 0 Initial   0 1 2 3 At Injection 0 0.00 false 
Method Comments...
 Comment:   

-- END PUMP --

-- DETECTOR -- 

Waters Acquity CM

 Target Column Temperature: 40.0 °C
 Temperature Alarm Band: 2.0 °C
 Shutdown all columns: No 
 Column Valve Position: Column 1 
 Equilibration Time: 0.1 min
 External Valve 1: No Change 
 External Valve 2: No Change 
 External Valve 3: No Change 
 Comment:  
 Column Temperature Data Channel: No 
 Preheater Temperature Data Channel: No 


-- END DETECTOR -- 

-- DETECTOR -- 

Waters Acquity PDA

 Run Time: 3.50 min
 PDA Detector Type: UPLC eLambda 800 nm 
 Lamp: On 
 Sampling Rate: 10 points/sec
 Filter Time Constant: 0.2000 sec
 Exposure Time: Auto msec
 Negative Absorbance Margin: -0.07 AU
 Interpolate 656 nm Line Region: No 
 Interpolate 2nd order filter Region: No 
 Use UV Blocking Filter: No 
3D Channel...
 Range: 210  - 600  
 Resolution: 1.2 nm
Channel 1...
 Data Mode: Absorbance at 220  
 Resolution: 4.8 nm
Channel 2...
 Data Mode: Absorbance at 254  
 Resolution: 4.8 nm
 Initial Switch 1: Off 
 Pulse Width: 1.0 sec
 Rect Wave Period: 0.2 sec
 Run Events: Yes 
 [Event Table]
  Time(min) Event  Channel 
 1. 0.10 Event Out Off  


-- END DETECTOR -- 

-- AUTOSAMPLER --

Waters ACQUITY FTN AutoSampler 
 Run Time: 3.50 min
 Comment:  
 Load Ahead: Disabled 
 Loop Offline: Disabled 
 Wash Solvent Name: 9:1 ACN:H2O 
 Pre-Inject Wash Time: 0.0 sec
 Post-Inject Wash Time: 6.0 sec
 Purge Solvent Name: 90% H2O/ACN 
 Dilution: Disabled 
 Dilution Volume: 0 uL
 Delay Time: 0 min
 Dilution Needle Placement: 4 mm
 Target Column Temperature: Off °C
 Target Sample Temperature: Off °C
 Syringe Draw Rate: Automatic 
 Needle Placement: Automatic 
 Pre-Aspirate Air Gap: Automatic 
 Post-Aspirate Air Gap: Automatic 
 Column Temperature Data Channel: No 
 Room Temperature Data Channel: No 
 Sample Temperature Data Channel: No 
 Sample Organizer Temperature Data Channel: No 
 Sample Pressure Data Channel: No 
 Preheater Temperature Data Channel: No 
 Seal Force Data Channel: No 
 No Injection Mode Enabled: No 
 Run Events: No 


Sample Run Injection Parameter

Injection Volume (ul)   -   10.00
-- END AUTOSAMPLER --

----------------------------  oOo  -----------------------------


End of experimental record.



------------------- Waters GI Pump Postrun Report  ---------------



----------------------------  oOo  -----------------------------



------------------- Waters ACQUITY FTN Postrun Report  ---------------



 Software Version: 1.73.3101 
 Firmware Version: 1.71.395 (Feb 14 2018) 
 Checksum: 0x285858d7 
 Serial Number: F13SDI377G 
 Sample Syringe Size: 100.0 
 Extension Loop Size: 0.0 
 Needle Size: 15.0 
 Minimum Sample Temperature: 26.3 °C
 Maximum Sample Temperature: 26.3 °C
 Average Sample Temperature: 26.3 °C
 Minimum Column Temperature: 0.0 °C
 Maximum Column Temperature: 0.0 °C
 Average Column Temperature: 0.0 °C

----------------------------  oOo  -----------------------------



------------------- Waters Acquity CM Postrun Report  ---------------



 Software Version: 1.73.3359 
 Firmware Version: 1.69.154 (Feb 17 2017) 
 Checksum: 0x17ac4a76 
 Serial Number: F13CMP190G 
 Valve Position: 1 
 ColumnType: ACQUITY UPLC® BEH C18 1.7µm 
 Column Serial Number: 03303833015144 
 Column Part Number: 186002350 
 Total Injections on Column: 10992 
 Minimum Column Temperature: 40.0 °C
 Maximum Column Temperature: 40.0 °C
 Average Column Temperature: 40.0 °C

----------------------------  oOo  -----------------------------

------------------- Active eCord Data ---------------


Valve Current Position: 1
Column Name: ACQUITY UPLC® BEH C18 1.7µm
Part Number: 186002350
Serial Number: 03303833015144
Injection Count: 10992
Injection Count Threshold: 0
Date of First Injection: 9/16/2019  10:15:9 AM
Date of Last Injection: 11/27/2020  4:4:27 PM
Sample Count: 1464
Sample Set Count: 8972
Maximum Pressure: 16749 psi
Date of Maximum Pressure: 2/9/2020  2:5:4 PM
Maximum Temperature: 40.5 °C
Date of Maximum Temperature: 4/29/2020  8:11:12 AM

----------------------------  oOo  -----------------------------



------------------- Generic Instrument Postrun Report  ---------------


 Software Version: 1.70.2074 
 Firmware Version: 1.70.6367 (Jan 25 2018) 
 Checksum: 0xdf9b3a2e 
 Serial Number: D13UPL538A 
 Lamp On/Off Event: No 
 Lamp Life: 3262.00 hours
 Lamp Serial Number: 2B9D0EB5 
 Exposure Time: 4.167 msec
 Lambda1: 185.885 
 Lambda512: 804.373 
 Flow Cell Type: High Sensitivity LG 
 Flow Cell Path Length: 25.000 mm
 Flow Cell Volume: 2.400 microliters
 Flow Cell Serial Number: PDA25-01347 
 Flow Cell Part Number: 205015019 
 Optics Temperature Stabilzation Setting: Normal Temperature 

----------------------------  oOo  -----------------------------

---------------Failed to get IECordHost2 Interface ---------



-- END INLET --

-- FRACTION --


-- END FRACTION --
-- FUNCTION --

Function 1
Scans in function:         478
Cycle time (secs):         Automatic
Scan duration (secs):      0.200
Inter Scan Delay (secs):   Automatic
Start and End Time(mins):   0.000 to 3.500
Ionization mode:           ES+
Data type:                 Accurate Mass
Function type:             Scan                       
Mass range:                 500 to 3072

Function 2
Scans in function:         477
Cycle time (secs):         Automatic
Scan duration (secs):      0.200
Inter Scan Delay (secs):   Automatic
Start and End Time(mins):   0.000 to 3.500
Ionization mode:           ES-
Data type:                 Accurate Mass
Function type:             Scan                       
Mass range:                 500 to 3072

Function 3
Scans in function:         2101
Function type:             Diode Array
Wavelength range (nm):      210 to 600

-- END FUNCTION --

}
}
