[SAMPLE]
{
Sample	1
Well	1:41
FileName	Bode - AlKa - 23 - on-1_20191023
SampleID	Bode - AlKa - 23 - on-1_20191023
SampleDescription	AlKa - 23 - on
Date	23-Oct-2019
Time	10:45:48
JobCode	Bode - AlKa - 23 - on
TaskCode
UserName	Bode - xxx
LabName
Instrument	ACQ-SQD2#LCA574
Conditions
Submitter	Bode - xxx
SampleType	0
Plate	01TL,XY,SD,1: 6,2: 8,3:140.0,4:140.0,5:  0.0,6:  0.0,7:O,8:O,9:1280.0,10:860.0,11:320.0,12:120.0,13:150.0,14: 83.0
QCBatchName	C:\MassLynx\OALogin\BatchDB\SQ01_QC_2018_271.rpt
QCFileName	SQ01_QC_2018_271
QCDate	11/03/2019
QCTime	06:07:36
QCStatus	Fail
QCReason1
QCReason2	Intensity
Method	E:\Masslynx Projects\MoBiAS open access.PRO\MethDB\Low_Mass_PosNeg LC_Fast.olp
Process	C:\MassLynx\OpenLynx.exe
MSTune	Instrument_OA_settings_15Dec2017
MSMethod	FAST_LowMass_From100to500Da_PosNeg
InletMethod	FAST_ACN_H2O_FullRange
PreRunMethod
PostRunMethod
SwitchMethod	Switch_ACN_H2O_FullRange_and_Polar
FractionMethod
AcquisitionProcess
AcquisitionProcessParameters
AcquisitionProcessOptions
InjectionVolume	2.0000
ReportScheme	E:\Masslynx Projects\MoBiAS open access.PRO\MoBiAS_Report_Settings_Standard_Report.ors
SampleReportEnable	1
SampleReportFormat	E:\Masslynx Projects\MoBiAS open access.PRO\MoBiAS_Report_Settings_Standard_Report.ors
AnalysisTime	3.5000
ColumnName	 ACQUITY UPLC® BEH C18 1.7µm
Spare1
Spare2
Spare3
Spare4
Spare5
[COMPOUND]
{
;Mono Mass		Formula
315.0000	
316.0000	
}
[FRACTIONRESULTS]
{
}
[FRACTION]
{
}
[FUNCTION]
{
Function	1
IonMode	ES+ 
Type	MS 
Description	(100:500) 
[SPECTRUM]
{
ProcDesc	Center (Top,4, Ar); Smooth (Mn, 2x0.75); Subtract (1,40.00 ,0.010); Combine (70:76-(51:57+137:143))
State	Diversity fail
Peak ID	1
Peak Ref	1
Time	0.5317
TIC	24289736
BPI	9269297
BPM	159.7661
Continuum	FALSE
Saved	FALSE
[MASSES]
{
;Mass	Exp. Mass	Obs. Mass	% BPI	Int. Abs	Adducted Formula
315.0000	338.0000	0.0000	0.00	0.00	
315.0000	316.0000	0.0000	0.00	0.00	
316.0000	339.0000	0.0000	0.00	0.00	
316.0000	317.0000	0.0000	0.00	0.00	
}
[RESULTS]
{
;Mass	Found	% BPI	% Purity	Confirmed	Status
315.0000	0	0.00	0.00	0	
316.0000	0	0.00	0.00	0	
}
[MS]
{
;Mass	% BPI
100.79	25.227
113.75	24.471
131.68	33.422
141.63	22.377
148.70	8.977
159.77	100.000
161.87	8.932
176.86	11.681
182.88	15.007
308.95	11.951
}
}
[SPECTRUM]
{
ProcDesc	Center (Top,4, Ar); Smooth (Mn, 2x0.75); Subtract (1,40.00 ,0.010); Combine (143:149-(122:128+162:168))
State	Diversity fail
Peak ID	2
Peak Ref	20
Time	1.0673
TIC	102113712
BPI	49110472
BPM	121.8047
Continuum	FALSE
Saved	FALSE
[MASSES]
{
;Mass	Exp. Mass	Obs. Mass	% BPI	Int. Abs	Adducted Formula
315.0000	338.0000	0.0000	0.00	0.00	
315.0000	316.0000	0.0000	0.00	0.00	
316.0000	339.0000	0.0000	0.00	0.00	
316.0000	317.0000	0.0000	0.00	0.00	
}
[RESULTS]
{
;Mass	Found	% BPI	% Purity	Confirmed	Status
315.0000	0	0.00	0.00	0	
316.0000	0	0.00	0.00	0	
}
[MS]
{
;Mass	% BPI
121.80	100.000
122.86	5.549
138.68	4.121
144.64	9.519
180.01	47.039
180.99	3.914
201.72	12.517
223.01	11.916
463.16	8.667
465.12	4.684
}
}
[SPECTRUM]
{
ProcDesc	Center (Top,4, Ar); Smooth (Mn, 2x0.75); Subtract (1,40.00 ,0.010); Combine (147:152-(124:131+170:177))
State	Diversity fail
Peak ID	3
Peak Ref	30
Time	1.0933
TIC	333358752
BPI	102268464
BPM	201.7191
Continuum	FALSE
Saved	FALSE
[MASSES]
{
;Mass	Exp. Mass	Obs. Mass	% BPI	Int. Abs	Adducted Formula
315.0000	338.0000	0.0000	0.00	0.00	
315.0000	316.0000	0.0000	0.00	0.00	
316.0000	339.0000	0.0000	0.00	0.00	
316.0000	317.0000	0.0000	0.00	0.00	
}
[RESULTS]
{
;Mass	Found	% BPI	% Purity	Confirmed	Status
315.0000	0	0.00	0.00	0	
316.0000	0	0.00	0.00	0	
}
[MS]
{
;Mass	% BPI
108.85	4.644
121.80	13.414
179.94	6.617
200.32	57.623
201.72	100.000
203.05	16.681
223.01	76.416
223.99	12.324
463.09	26.544
465.05	11.701
}
}
[SPECTRUM]
{
ProcDesc	Center (Top,4, Ar); Smooth (Mn, 2x0.75); Subtract (1,40.00 ,0.010); Combine (153:159-(133:139+173:179))
State	Diversity fail
Peak ID	4
Peak Ref	4
Time	1.1407
TIC	499320064
BPI	155479600
BPM	201.9993
Continuum	FALSE
Saved	FALSE
[MASSES]
{
;Mass	Exp. Mass	Obs. Mass	% BPI	Int. Abs	Adducted Formula
315.0000	338.0000	0.0000	0.00	0.00	
315.0000	316.0000	0.0000	0.00	0.00	
316.0000	339.0000	0.0000	0.00	0.00	
316.0000	317.0000	0.0000	0.00	0.00	
}
[RESULTS]
{
;Mass	Found	% BPI	% Purity	Confirmed	Status
315.0000	0	0.00	0.00	0	
316.0000	0	0.00	0.00	0	
}
[MS]
{
;Mass	% BPI
147.72	7.387
200.39	62.258
202.00	100.000
203.05	10.567
215.03	19.620
223.01	49.171
227.98	31.334
249.90	11.243
463.09	21.993
464.98	7.574
}
}
[SPECTRUM]
{
ProcDesc	Center (Top,4, Ar); Smooth (Mn, 2x0.75); Subtract (1,40.00 ,0.010); Combine (159:165-(139:145+181:187))
State	Diversity fail
Peak ID	5
Peak Ref	5
Time	1.1847
TIC	620522624
BPI	126839616
BPM	147.7894
Continuum	FALSE
Saved	FALSE
[MASSES]
{
;Mass	Exp. Mass	Obs. Mass	% BPI	Int. Abs	Adducted Formula
315.0000	338.0000	0.0000	0.00	0.00	
315.0000	316.0000	0.0000	0.00	0.00	
316.0000	339.0000	0.0000	0.00	0.00	
316.0000	317.0000	0.0000	0.00	0.00	
}
[RESULTS]
{
;Mass	Found	% BPI	% Purity	Confirmed	Status
315.0000	0	0.00	0.00	0	
316.0000	0	0.00	0.00	0	
}
[MS]
{
;Mass	% BPI
147.79	100.000
148.77	12.963
198.99	56.493
200.74	97.169
202.00	19.026
215.03	52.805
238.98	16.871
256.98	89.065
257.96	25.856
278.90	18.969
}
}
[SPECTRUM]
{
ProcDesc	Center (Top,4, Ar); Smooth (Mn, 2x0.75); Subtract (1,40.00 ,0.010); Combine (167:173-(147:153+188:194))
State	Diversity fail
Peak ID	6
Peak Ref	6
Time	1.2434
TIC	222515248
BPI	67272064
BPM	270.9857
Continuum	FALSE
Saved	FALSE
[MASSES]
{
;Mass	Exp. Mass	Obs. Mass	% BPI	Int. Abs	Adducted Formula
315.0000	338.0000	0.0000	0.00	0.00	
315.0000	316.0000	0.0000	0.00	0.00	
316.0000	339.0000	0.0000	0.00	0.00	
316.0000	317.0000	0.0000	0.00	0.00	
}
[RESULTS]
{
;Mass	Found	% BPI	% Purity	Confirmed	Status
315.0000	0	0.00	0.00	0	
316.0000	0	0.00	0.00	0	
}
[MS]
{
;Mass	% BPI
144.64	19.170
146.67	8.690
147.72	20.457
200.88	64.597
213.00	11.786
215.03	14.235
229.03	56.801
230.01	7.285
238.98	27.750
270.99	100.000
}
}
[SPECTRUM]
{
ProcDesc	Center (Top,4, Ar); Smooth (Mn, 2x0.75); Subtract (1,40.00 ,0.010); Combine (175:181-(154:160+195:201))
State	Diversity fail
Peak ID	7
Peak Ref	7
Time	1.3021
TIC	212385792
BPI	78004056
BPM	238.9790
Continuum	FALSE
Saved	FALSE
[MASSES]
{
;Mass	Exp. Mass	Obs. Mass	% BPI	Int. Abs	Adducted Formula
315.0000	338.0000	0.0000	0.00	0.00	
315.0000	316.0000	0.0000	0.00	0.00	
316.0000	339.0000	0.0000	0.00	0.00	
316.0000	317.0000	0.0000	0.00	0.00	
}
[RESULTS]
{
;Mass	Found	% BPI	% Purity	Confirmed	Status
315.0000	0	0.00	0.00	0	
316.0000	0	0.00	0.00	0	
}
[MS]
{
;Mass	% BPI
144.64	11.091
180.01	9.623
198.99	23.354
201.02	13.907
207.04	25.175
228.96	45.083
238.98	100.000
239.96	16.483
243.04	12.473
397.19	15.086
}
}
[SPECTRUM]
{
ProcDesc	Center (Top,4, Ar); Smooth (Mn, 2x0.75); Subtract (1,40.00 ,0.010); Combine (179:185-(160:166+219:225))
State	Diversity fail
Peak ID	8
Peak Ref	22
Time	1.3314
TIC	184793440
BPI	39412264
BPM	207.0420
Continuum	FALSE
Saved	FALSE
[MASSES]
{
;Mass	Exp. Mass	Obs. Mass	% BPI	Int. Abs	Adducted Formula
315.0000	338.0000	0.0000	0.00	0.00	
315.0000	316.0000	0.0000	0.00	0.00	
316.0000	339.0000	0.0000	0.00	0.00	
316.0000	317.0000	0.0000	0.00	0.00	
}
[RESULTS]
{
;Mass	Found	% BPI	% Purity	Confirmed	Status
315.0000	0	0.00	0.00	0	
316.0000	0	0.00	0.00	0	
}
[MS]
{
;Mass	% BPI
109.83	12.181
129.86	45.053
144.64	13.294
180.01	22.971
207.04	100.000
228.96	73.354
239.05	20.867
242.97	87.169
266.99	70.472
397.19	23.513
}
}
[SPECTRUM]
{
ProcDesc	Center (Top,4, Ar); Smooth (Mn, 2x0.75); Subtract (1,40.00 ,0.010); Combine (193:199-(174:180+214:220))
State	Diversity fail
Peak ID	9
Peak Ref	9
Time	1.4342
TIC	29836836
BPI	7313391
BPM	207.1120
Continuum	FALSE
Saved	FALSE
[MASSES]
{
;Mass	Exp. Mass	Obs. Mass	% BPI	Int. Abs	Adducted Formula
315.0000	338.0000	0.0000	0.00	0.00	
315.0000	316.0000	0.0000	0.00	0.00	
316.0000	339.0000	0.0000	0.00	0.00	
316.0000	317.0000	0.0000	0.00	0.00	
}
[RESULTS]
{
;Mass	Found	% BPI	% Purity	Confirmed	Status
315.0000	0	0.00	0.00	0	
316.0000	0	0.00	0.00	0	
}
[MS]
{
;Mass	% BPI
163.83	20.288
207.11	100.000
213.00	29.192
223.99	38.240
256.91	20.682
304.04	36.532
333.18	70.111
353.21	39.375
414.28	27.123
430.52	26.433
}
}
[SPECTRUM]
{
ProcDesc	Center (Top,4, Ar); Smooth (Mn, 2x0.75); Subtract (1,40.00 ,0.010); Combine (200:206-(180:186+225:231))
State	Diversity fail
Peak ID	10
Peak Ref	10
Time	1.4855
TIC	47237092
BPI	12011664
BPM	196.9566
Continuum	FALSE
Saved	FALSE
[MASSES]
{
;Mass	Exp. Mass	Obs. Mass	% BPI	Int. Abs	Adducted Formula
315.0000	338.0000	0.0000	0.00	0.00	
315.0000	316.0000	0.0000	0.00	0.00	
316.0000	339.0000	0.0000	0.00	0.00	
316.0000	317.0000	0.0000	0.00	0.00	
}
[RESULTS]
{
;Mass	Found	% BPI	% Purity	Confirmed	Status
315.0000	0	0.00	0.00	0	
316.0000	0	0.00	0.00	0	
}
[MS]
{
;Mass	% BPI
187.92	8.094
194.01	44.319
196.96	100.000
215.03	85.175
219.02	14.039
226.02	14.913
260.55	16.516
271.06	47.698
278.97	48.241
320.01	14.265
}
}
[SPECTRUM]
{
ProcDesc	Center (Top,4, Ar); Smooth (Mn, 2x0.75); Subtract (1,40.00 ,0.010); Combine (215:221-(197:203+248:254))
State	Diversity fail
Peak ID	11
Peak Ref	23
Time	1.5956
TIC	382744544
BPI	79099352
BPM	285.9734
Continuum	FALSE
Saved	FALSE
[MASSES]
{
;Mass	Exp. Mass	Obs. Mass	% BPI	Int. Abs	Adducted Formula
315.0000	338.0000	0.0000	0.00	0.00	
315.0000	316.0000	0.0000	0.00	0.00	
316.0000	339.0000	0.0000	0.00	0.00	
316.0000	317.0000	0.0000	0.00	0.00	
}
[RESULTS]
{
;Mass	Found	% BPI	% Purity	Confirmed	Status
315.0000	0	0.00	0.00	0	
316.0000	0	0.00	0.00	0	
}
[MS]
{
;Mass	% BPI
200.95	17.794
266.92	90.949
267.97	18.642
284.71	94.702
285.55	45.516
285.97	100.000
287.02	27.224
307.05	73.316
308.03	9.229
348.16	6.507
}
}
[SPECTRUM]
{
ProcDesc	Center (Top,4, Ar); Smooth (Mn, 2x0.75); Subtract (1,40.00 ,0.010); Combine (234:240-(213:219+255:261))
State	Diversity fail
Peak ID	12
Peak Ref	12
Time	1.7350
TIC	63514120
BPI	46114928
BPM	175.9451
Continuum	FALSE
Saved	FALSE
[MASSES]
{
;Mass	Exp. Mass	Obs. Mass	% BPI	Int. Abs	Adducted Formula
315.0000	338.0000	0.0000	0.00	0.00	
315.0000	316.0000	0.0000	0.00	0.00	
316.0000	339.0000	0.0000	0.00	0.00	
316.0000	317.0000	0.0000	0.00	0.00	
}
[RESULTS]
{
;Mass	Found	% BPI	% Purity	Confirmed	Status
315.0000	0	0.00	0.00	0	
316.0000	0	0.00	0.00	0	
}
[MS]
{
;Mass	% BPI
131.40	1.046
175.95	100.000
177.00	7.535
213.00	4.373
258.38	0.887
284.99	7.767
354.19	3.066
359.23	4.417
378.14	1.214
430.45	7.425
}
}
[SPECTRUM]
{
ProcDesc	Center (Top,4, Ar); Smooth (Mn, 2x0.75); Subtract (1,40.00 ,0.010); Combine (277:283-(256:262+297:303))
State	Diversity fail
Peak ID	13
Peak Ref	13
Time	2.0505
TIC	33656220
BPI	18391952
BPM	280.0904
Continuum	FALSE
Saved	FALSE
[MASSES]
{
;Mass	Exp. Mass	Obs. Mass	% BPI	Int. Abs	Adducted Formula
315.0000	338.0000	0.0000	0.00	0.00	
315.0000	316.0000	0.0000	0.00	0.00	
316.0000	339.0000	0.0000	0.00	0.00	
316.0000	317.0000	0.0000	0.00	0.00	
}
[RESULTS]
{
;Mass	Found	% BPI	% Purity	Confirmed	Status
315.0000	0	0.00	0.00	0	
316.0000	0	0.00	0.00	0	
}
[MS]
{
;Mass	% BPI
123.77	4.913
130.21	14.350
242.06	7.729
250.89	6.002
254.18	6.871
263.14	19.485
280.09	100.000
306.21	7.132
385.28	5.579
430.38	10.933
}
}
[SPECTRUM]
{
ProcDesc	Center (Top,4, Ar); Smooth (Mn, 2x0.75); Subtract (1,40.00 ,0.010); Combine (298:304-(263:269+336:342))
State	Diversity fail
Peak ID	14
Peak Ref	14
Time	2.2046
TIC	209238336
BPI	131782136
BPM	282.1215
Continuum	FALSE
Saved	FALSE
[MASSES]
{
;Mass	Exp. Mass	Obs. Mass	% BPI	Int. Abs	Adducted Formula
315.0000	338.0000	0.0000	0.00	0.00	
315.0000	316.0000	0.0000	0.00	0.00	
316.0000	339.0000	0.0000	0.00	0.00	
316.0000	317.0000	0.0000	0.00	0.00	
}
[RESULTS]
{
;Mass	Found	% BPI	% Purity	Confirmed	Status
315.0000	0	0.00	0.00	0	
316.0000	0	0.00	0.00	0	
}
[MS]
{
;Mass	% BPI
100.86	1.251
107.80	1.594
109.90	6.737
123.98	1.595
130.49	7.150
256.21	5.243
265.10	4.357
282.12	100.000
283.10	27.245
430.38	3.604
}
}
[SPECTRUM]
{
ProcDesc	Center (Top,4, Ar); Smooth (Mn, 2x0.75); Subtract (1,40.00 ,0.010); Combine (329:335-(302:308+349:355))
State	Diversity fail
Peak ID	15
Peak Ref	15
Time	2.4320
TIC	14495888
BPI	7047949
BPM	284.3626
Continuum	FALSE
Saved	FALSE
[MASSES]
{
;Mass	Exp. Mass	Obs. Mass	% BPI	Int. Abs	Adducted Formula
315.0000	338.0000	0.0000	0.00	0.00	
315.0000	316.0000	0.0000	0.00	0.00	
316.0000	339.0000	0.0000	0.00	0.00	
316.0000	317.0000	0.0000	0.00	0.00	
}
[RESULTS]
{
;Mass	Found	% BPI	% Purity	Confirmed	Status
315.0000	0	0.00	0.00	0	
316.0000	0	0.00	0.00	0	
}
[MS]
{
;Mass	% BPI
108.15	3.053
112.91	3.251
123.63	28.443
129.58	4.680
144.85	13.352
146.60	4.277
198.71	2.825
284.36	100.000
310.28	26.968
325.26	18.826
}
}
[SPECTRUM]
{
ProcDesc	Center (Top,4, Ar); Smooth (Mn, 2x0.75); Subtract (1,40.00 ,0.010); Combine (358:364-(315:321+398:404))
State	Diversity fail
Peak ID	16
Peak Ref	16
Time	2.6448
TIC	93556224
BPI	20416608
BPM	393.3366
Continuum	FALSE
Saved	FALSE
[MASSES]
{
;Mass	Exp. Mass	Obs. Mass	% BPI	Int. Abs	Adducted Formula
315.0000	338.0000	0.0000	0.00	0.00	
315.0000	316.0000	0.0000	0.00	0.00	
316.0000	339.0000	0.0000	0.00	0.00	
316.0000	317.0000	0.0000	0.00	0.00	
}
[RESULTS]
{
;Mass	Found	% BPI	% Purity	Confirmed	Status
315.0000	0	0.00	0.00	0	
316.0000	0	0.00	0.00	0	
}
[MS]
{
;Mass	% BPI
100.86	29.274
123.84	74.906
129.86	70.437
144.57	34.915
200.95	30.556
371.35	35.933
391.31	22.420
393.34	100.000
413.23	37.297
454.27	22.497
}
}
[SPECTRUM]
{
ProcDesc	Center (Top,4, Ar); Smooth (Mn, 2x0.75); Subtract (1,40.00 ,0.010); Combine (382:388-(364:370+405:411))
State	Diversity fail
Peak ID	17
Peak Ref	17
Time	2.8209
TIC	40345716
BPI	12146611
BPM	129.9293
Continuum	FALSE
Saved	FALSE
[MASSES]
{
;Mass	Exp. Mass	Obs. Mass	% BPI	Int. Abs	Adducted Formula
315.0000	338.0000	0.0000	0.00	0.00	
315.0000	316.0000	0.0000	0.00	0.00	
316.0000	339.0000	0.0000	0.00	0.00	
316.0000	317.0000	0.0000	0.00	0.00	
}
[RESULTS]
{
;Mass	Found	% BPI	% Purity	Confirmed	Status
315.0000	0	0.00	0.00	0	
316.0000	0	0.00	0.00	0	
}
[MS]
{
;Mass	% BPI
117.74	8.937
123.70	32.688
129.93	100.000
144.64	31.764
146.67	17.135
256.77	26.602
306.14	26.392
430.38	63.845
431.43	15.180
441.31	9.612
}
}
[SPECTRUM]
{
ProcDesc	Center (Top,4, Ar); Smooth (Mn, 2x0.75); Subtract (1,40.00 ,0.010); Combine (392:398-(371:377+420:426))
State	Diversity fail
Peak ID	18
Peak Ref	18
Time	2.8943
TIC	79183496
BPI	18732070
BPM	430.3843
Continuum	FALSE
Saved	FALSE
[MASSES]
{
;Mass	Exp. Mass	Obs. Mass	% BPI	Int. Abs	Adducted Formula
315.0000	338.0000	0.0000	0.00	0.00	
315.0000	316.0000	0.0000	0.00	0.00	
316.0000	339.0000	0.0000	0.00	0.00	
316.0000	317.0000	0.0000	0.00	0.00	
}
[RESULTS]
{
;Mass	Found	% BPI	% Purity	Confirmed	Status
315.0000	0	0.00	0.00	0	
316.0000	0	0.00	0.00	0	
}
[MS]
{
;Mass	% BPI
131.33	80.745
132.17	37.588
139.66	17.964
140.65	12.178
151.92	84.245
152.62	33.237
256.70	22.941
306.14	12.866
430.38	100.000
431.43	20.953
}
}
[SPECTRUM]
{
ProcDesc	Center (Top,4, Ar); Smooth (Mn, 2x0.75); Subtract (1,40.00 ,0.010); Combine (411:417-(390:396+441:447))
State	Diversity fail
Peak ID	19
Peak Ref	25
Time	3.0337
TIC	214035536
BPI	90657528
BPM	122.3650
Continuum	FALSE
Saved	FALSE
[MASSES]
{
;Mass	Exp. Mass	Obs. Mass	% BPI	Int. Abs	Adducted Formula
315.0000	338.0000	0.0000	0.00	0.00	
315.0000	316.0000	0.0000	0.00	0.00	
316.0000	339.0000	0.0000	0.00	0.00	
316.0000	317.0000	0.0000	0.00	0.00	
}
[RESULTS]
{
;Mass	Found	% BPI	% Purity	Confirmed	Status
315.0000	0	0.00	0.00	0	
316.0000	0	0.00	0.00	0	
}
[MS]
{
;Mass	% BPI
101.84	8.629
109.83	4.705
110.81	4.772
113.89	4.211
122.36	100.000
125.73	24.669
130.42	4.999
142.82	71.551
166.84	11.041
201.09	1.515
}
}
[CHROMATOGRAM]
{
TraceNumber	1
Description	MS ES+ :TIC
ProcDesc
MaxIntensity	15862257664.00
[TRACE]
{
0.50232	0.000
0.50965	0.000
0.51700	0.000
0.52433	10.720
0.53167	25.399
0.53900	10.395
0.54633	8.101
0.55368	8.504
0.56103	9.315
0.56835	9.805
0.57568	10.131
0.58303	10.229
0.59037	9.754
0.59772	10.014
0.60505	9.602
0.61238	9.798
0.61972	9.419
0.62705	9.268
0.63438	8.266
0.64173	8.595
0.64907	8.163
0.65640	7.462
0.66375	7.375
0.67107	7.859
0.67843	7.682
0.68575	7.434
0.69308	7.087
0.70043	6.321
0.70777	6.818
0.71510	7.013
0.72245	6.831
0.72977	6.692
0.73712	6.934
0.74445	5.883
0.75178	6.158
0.75915	5.945
0.76647	6.088
0.77380	6.290
0.78113	5.625
0.78847	5.749
0.79580	5.788
0.80313	5.405
0.81048	5.429
0.81783	5.424
0.82517	5.170
0.83250	5.134
0.83983	5.340
0.84718	4.465
0.85450	4.896
0.86185	4.614
0.86920	4.632
0.87652	4.824
0.88385	4.855
0.89122	4.581
0.89853	4.547
0.90588	4.584
0.91322	4.649
0.92053	5.305
0.92788	5.475
0.93522	5.420
0.94257	5.559
0.94990	5.397
0.95725	5.526
0.96457	6.667
0.97190	7.926
0.97923	7.860
0.98658	7.508
0.99392	7.720
1.00125	7.891
1.00858	9.273
1.01592	10.349
1.02327	11.634
1.03060	11.916
1.03795	11.347
1.04528	13.083
1.05263	16.738
1.05995	22.662
1.06730	25.941
1.07463	22.301
1.08197	21.247
1.08930	52.107
1.09665	65.104
1.10398	69.621
1.11130	68.029
1.11865	66.063
1.12598	67.540
1.13332	70.564
1.14065	73.021
1.14800	72.556
1.15535	69.877
1.16267	59.121
1.17000	67.121
1.17733	94.671
1.18468	100.000
1.19203	94.489
1.19937	82.606
1.20670	68.620
1.21405	52.324
1.22138	47.174
1.22872	47.035
1.23605	53.597
1.24337	59.723
1.25072	57.247
1.25805	48.305
1.26538	44.605
1.27275	45.238
1.28007	47.670
1.28742	59.421
1.29475	63.193
1.30207	65.220
1.30943	62.696
1.31677	54.891
1.32412	49.718
1.33143	56.945
1.33877	63.053
1.34610	70.926
1.35345	66.561
1.36078	50.698
1.36812	42.499
1.37547	38.683
1.38278	36.828
1.39013	35.388
1.39747	35.429
1.40482	35.236
1.41215	32.391
1.41948	31.664
1.42685	31.749
1.43417	34.257
1.44152	34.210
1.44883	32.049
1.45618	28.414
1.46350	26.735
1.47085	27.814
1.47818	33.495
1.48553	35.194
1.49287	31.924
1.50020	30.772
1.50753	28.681
1.51488	27.383
1.52222	26.542
1.52953	27.474
1.53688	26.701
1.54423	25.420
1.55158	25.850
1.55892	27.770
1.56625	28.467
1.57358	28.952
1.58092	27.135
1.58825	28.227
1.59558	56.347
1.60293	82.137
1.61027	93.758
1.61760	91.963
1.62493	81.984
1.63227	67.886
1.63962	56.148
1.64693	48.023
1.65428	43.565
1.66163	40.803
1.66897	38.719
1.67630	35.293
1.68363	32.839
1.69097	31.415
1.69830	30.172
1.70565	30.112
1.71298	30.256
1.72032	31.050
1.72765	37.488
1.73498	39.252
1.74233	36.265
1.74967	33.505
1.75702	31.172
1.76435	31.133
1.77168	32.037
1.77902	33.383
1.78637	35.199
1.79368	34.573
1.80102	33.114
1.80837	31.670
1.81572	31.245
1.82305	29.924
1.83038	30.924
1.83773	31.105
1.84507	30.927
1.85240	32.177
1.85973	32.359
1.86707	32.502
1.87440	32.156
1.88173	31.612
1.88908	32.486
1.89643	32.614
1.90375	33.430
1.91110	33.882
1.91842	33.343
1.92575	33.509
1.93310	32.268
1.94047	33.662
1.94777	33.164
1.95512	31.974
1.96245	34.127
1.96980	34.007
1.97712	34.428
1.98445	33.884
1.99178	34.663
1.99913	36.327
2.00648	37.007
2.01382	36.184
2.02113	34.455
2.02847	34.648
2.03582	36.404
2.04317	40.312
2.05050	43.218
2.05783	41.947
2.06517	41.480
2.07250	39.718
2.07983	40.669
2.08718	40.354
2.09453	41.349
2.10185	42.188
2.10920	42.504
2.11653	41.199
2.12388	41.466
2.13122	42.505
2.13855	44.035
2.14588	44.220
2.15323	44.229
2.16057	45.597
2.16790	45.886
2.17523	47.976
2.18257	47.928
2.18990	53.530
2.19725	62.908
2.20458	66.168
2.21192	63.456
2.21927	58.781
2.22662	54.011
2.23393	47.812
2.24128	45.864
2.24862	44.664
2.25595	43.777
2.26328	43.702
2.27060	42.144
2.27793	42.673
2.28530	41.970
2.29263	42.309
2.29998	40.588
2.30730	41.314
2.31463	40.249
2.32198	40.303
2.32932	39.661
2.33667	40.622
2.34398	39.987
2.35133	39.470
2.35867	38.993
2.36600	38.899
2.37335	38.994
2.38068	39.192
2.38802	38.170
2.39537	38.675
2.40268	37.806
2.41003	38.430
2.41738	38.381
2.42470	39.547
2.43203	39.808
2.43938	39.015
2.44672	38.426
2.45405	37.965
2.46140	38.049
2.46872	38.214
2.47607	38.379
2.48340	37.962
2.49073	38.052
2.49808	38.068
2.50540	37.513
2.51273	37.021
2.52008	37.283
2.52742	36.666
2.53477	36.916
2.54210	36.579
2.54943	37.089
2.55677	37.347
2.56412	36.566
2.57145	35.980
2.57878	36.735
2.58612	36.008
2.59347	36.409
2.60080	36.130
2.60813	35.669
2.61547	36.518
2.62282	38.900
2.63015	41.272
2.63747	42.034
2.64483	42.767
2.65217	41.992
2.65950	39.603
2.66685	36.986
2.67417	35.893
2.68150	35.678
2.68883	35.550
2.69618	35.246
2.70352	34.697
2.71085	34.371
2.71818	34.850
2.72552	34.029
2.73287	33.572
2.74022	33.264
2.74755	33.370
2.75490	33.130
2.76222	32.210
2.76955	31.630
2.77690	30.861
2.78423	30.338
2.79157	29.150
2.79888	28.148
2.80625	28.643
2.81358	27.700
2.82092	28.368
2.82827	27.553
2.83560	27.226
2.84293	24.621
2.85027	21.507
2.85760	20.020
2.86495	18.778
2.87228	19.197
2.87962	19.698
2.88697	21.953
2.89428	23.826
2.90163	22.156
2.90895	19.863
2.91632	17.184
2.92365	15.164
2.93097	12.229
2.93830	10.743
2.94565	10.296
2.95298	9.046
2.96033	9.166
2.96765	8.550
2.97498	8.100
2.98233	7.564
2.98968	7.812
2.99702	9.223
3.00435	14.471
3.01168	25.681
3.01903	33.507
3.02635	35.151
3.03368	35.939
3.04103	35.807
3.04837	32.084
3.05570	26.031
3.06305	25.776
3.07038	21.662
3.07773	19.047
3.08505	16.012
3.09238	14.977
3.09973	13.381
3.10707	12.662
3.11440	11.179
3.12175	10.178
3.12908	9.534
3.13640	9.187
3.14375	8.258
3.15110	8.299
3.15843	7.874
3.16575	8.072
3.17310	8.220
3.18045	8.045
3.18778	7.580
3.19513	7.593
3.20247	7.402
3.20980	7.050
3.21713	6.663
3.22447	6.794
3.23180	5.749
3.23913	6.242
3.24647	6.442
3.25382	5.806
3.26115	5.786
3.26848	6.307
3.27582	5.557
3.28317	5.685
3.29050	5.579
3.29783	5.307
3.30517	5.455
3.31252	5.506
3.31987	5.357
3.32718	5.449
3.33452	5.284
3.34187	5.119
3.34920	4.968
3.35653	5.018
3.36387	4.415
3.37120	5.222
3.37855	4.979
3.38588	5.073
3.39322	4.375
3.40055	5.054
3.40788	4.687
3.41523	4.859
3.42257	4.645
3.42992	4.546
3.43727	4.505
3.44458	4.603
3.45192	4.890
3.45925	4.614
3.46658	4.232
3.47393	4.282
3.48127	4.291
3.48860	4.578
3.49593	4.514
3.50330	4.332
}
[PEAK]
{
Peak ID	1
Peak Ref	1
Time	0.5317
Peak	0.5170	0.8985
Intensity	7899.46	721243456.00
Height	4001084672.00
AreaAbs	311121856.0000
Area %BP	29.79
Area %Total	5.31
Width	0.38
Response Test	0
}
[PEAK]
{
Peak ID	2
Peak Ref	2
Time	1.0673
Peak	1.0013	1.0746
Intensity	1251653504.00	1627432064.00
Height	2524949760.00
AreaAbs	66677412.0000
Area %BP	6.38
Area %Total	1.14
Width	0.07
Response Test	0
}
[PEAK]
{
Peak ID	3
Peak Ref	3
Time	1.1040
Peak	1.0746	1.1186
Intensity	1627432064.00	1852830592.00
Height	9265739776.00
AreaAbs	296126976.0000
Area %BP	28.35
Area %Total	5.05
Width	0.04
Response Test	0
}
[PEAK]
{
Peak ID	4
Peak Ref	4
Time	1.1407
Peak	1.1186	1.1627
Intensity	1852830592.00	2078229760.00
Height	9617364992.00
AreaAbs	397772512.0000
Area %BP	38.08
Area %Total	6.79
Width	0.04
Response Test	0
}
[PEAK]
{
Peak ID	5
Peak Ref	5
Time	1.1847
Peak	1.1627	1.2214
Intensity	2078229760.00	2378903808.00
Height	13671285760.00
AreaAbs	582855872.0000
Area %BP	55.81
Area %Total	9.94
Width	0.06
Response Test	0
}
[PEAK]
{
Peak ID	6
Peak Ref	6
Time	1.2434
Peak	1.2214	1.2728
Intensity	2378903808.00	2641940480.00
Height	6981891584.00
AreaAbs	286236256.0000
Area %BP	27.41
Area %Total	4.88
Width	0.05
Response Test	0
}
[PEAK]
{
Peak ID	7
Peak Ref	7
Time	1.3021
Peak	1.2728	1.3241
Intensity	2641940480.00	2904976896.00
Height	7553332224.00
AreaAbs	323816544.0000
Area %BP	31.00
Area %Total	5.52
Width	0.05
Response Test	0
}
[PEAK]
{
Peak ID	8
Peak Ref	8
Time	1.3461
Peak	1.3241	1.4195
Intensity	2904976896.00	3393326592.00
Height	8232919040.00
AreaAbs	404048800.0000
Area %BP	38.69
Area %Total	6.89
Width	0.10
Response Test	0
}
[PEAK]
{
Peak ID	9
Peak Ref	9
Time	1.4342
Peak	1.4195	1.4635
Intensity	3393326592.00	3618725888.00
Height	1965344000.00
AreaAbs	66639300.0000
Area %BP	6.38
Area %Total	1.14
Width	0.04
Response Test	0
}
[PEAK]
{
Peak ID	10
Peak Ref	10
Time	1.4855
Peak	1.4635	1.5442
Intensity	3618725888.00	4032141824.00
Height	1850948992.00
AreaAbs	66093224.0000
Area %BP	6.33
Area %Total	1.13
Width	0.08
Response Test	0
}
[PEAK]
{
Peak ID	11
Peak Ref	11
Time	1.6103
Peak	1.5809	1.7056
Intensity	4304264192.00	4735504384.00
Height	10466468864.00
AreaAbs	469578560.0000
Area %BP	44.96
Area %Total	8.01
Width	0.12
Response Test	0
}
[PEAK]
{
Peak ID	12
Peak Ref	12
Time	1.7350
Peak	1.7056	1.7644
Intensity	4735504384.00	4938448384.00
Height	1389258368.00
AreaAbs	29875124.0000
Area %BP	2.86
Area %Total	0.51
Width	0.06
Response Test	0
}
[PEAK]
{
Peak ID	13
Peak Ref	13
Time	2.0505
Peak	2.0211	2.0725
Intensity	5465344000.00	5240214528.00
Height	1518731648.00
AreaAbs	45241176.0000
Area %BP	4.33
Area %Total	0.77
Width	0.05
Response Test	0
}
[PEAK]
{
Peak ID	14
Peak Ref	14
Time	2.2046
Peak	2.0725	2.3587
Intensity	5240214528.00	3986000640.00
Height	5834490880.00
AreaAbs	737028096.0000
Area %BP	70.57
Area %Total	12.57
Width	0.29
Response Test	0
}
[PEAK]
{
Peak ID	15
Peak Ref	15
Time	2.4320
Peak	2.3587	2.4541
Intensity	3986000640.00	3567953408.00
Height	2650048512.00
AreaAbs	226107840.0000
Area %BP	21.65
Area %Total	3.86
Width	0.10
Response Test	0
}
[PEAK]
{
Peak ID	16
Peak Ref	16
Time	2.6448
Peak	2.4541	2.8136
Intensity	3567953408.00	1992187648.00
Height	4051988992.00
AreaAbs	1044443648.0000
Area %BP	100.00
Area %Total	17.82
Width	0.36
Response Test	0
}
[PEAK]
{
Peak ID	17
Peak Ref	17
Time	2.8209
Peak	2.8136	2.8649
Intensity	1992187648.00	1767057792.00
Height	2539761664.00
AreaAbs	104271576.0000
Area %BP	9.98
Area %Total	1.78
Width	0.05
Response Test	0
}
[PEAK]
{
Peak ID	18
Peak Ref	18
Time	2.8943
Peak	2.8649	2.9750
Intensity	1767057792.00	1284803072.00
Height	2140778880.00
AreaAbs	102649200.0000
Area %BP	9.83
Area %Total	1.75
Width	0.11
Response Test	0
}
[PEAK]
{
Peak ID	19
Peak Ref	19
Time	3.0337
Peak	2.9823	3.1584
Intensity	1199802496.00	1248934272.00
Height	4486562304.00
AreaAbs	300635264.0000
Area %BP	28.78
Area %Total	5.13
Width	0.18
Response Test	0
}
}
[CHROMATOGRAM]
{
TraceNumber	2
Description	MS ES+ :BPI
ProcDesc
MaxIntensity	134217728.00
[TRACE]
{
0.50232	0.002
0.50965	0.001
0.51700	0.002
0.52433	4.194
0.53167	35.974
0.53900	8.415
0.54633	10.028
0.55368	15.360
0.56103	18.080
0.56835	17.735
0.57568	16.843
0.58303	14.706
0.59037	13.522
0.59772	11.801
0.60505	9.248
0.61238	13.577
0.61972	12.688
0.62705	13.424
0.63438	11.006
0.64173	11.860
0.64907	12.275
0.65640	10.952
0.66375	11.307
0.67107	10.869
0.67843	11.771
0.68575	11.359
0.69308	9.791
0.70043	6.519
0.70777	9.930
0.71510	9.801
0.72245	9.859
0.72977	10.168
0.73712	10.796
0.74445	7.729
0.75178	9.435
0.75915	8.173
0.76647	7.867
0.77380	8.608
0.78113	7.444
0.78847	8.465
0.79580	8.740
0.80313	6.335
0.81048	6.995
0.81783	6.412
0.82517	5.609
0.83250	5.785
0.83983	6.425
0.84718	5.238
0.85450	6.244
0.86185	4.863
0.86920	5.019
0.87652	7.737
0.88385	5.191
0.89122	4.877
0.89853	4.395
0.90588	4.642
0.91322	4.771
0.92053	6.435
0.92788	5.360
0.93522	5.660
0.94257	5.578
0.94990	4.483
0.95725	4.813
0.96457	8.892
0.97190	15.701
0.97923	15.967
0.98658	8.826
0.99392	8.999
1.00125	11.493
1.00858	17.075
1.01592	26.489
1.02327	33.179
1.03060	26.648
1.03795	14.321
1.04528	27.441
1.05263	48.181
1.05995	84.534
1.06730	99.341
1.07463	67.841
1.08197	30.786
1.08930	100.000
1.09665	100.000
1.10398	100.000
1.11130	100.000
1.11865	100.000
1.12598	100.000
1.13332	100.000
1.14065	100.000
1.14800	100.000
1.15535	100.000
1.16267	100.000
1.17000	100.000
1.17733	100.000
1.18468	100.000
1.19203	100.000
1.19937	100.000
1.20670	100.000
1.21405	100.000
1.22138	100.000
1.22872	100.000
1.23605	100.000
1.24337	100.000
1.25072	100.000
1.25805	100.000
1.26538	100.000
1.27275	100.000
1.28007	100.000
1.28742	100.000
1.29475	100.000
1.30207	100.000
1.30943	91.739
1.31677	87.833
1.32412	89.285
1.33143	100.000
1.33877	100.000
1.34610	100.000
1.35345	100.000
1.36078	66.223
1.36812	67.328
1.37547	61.005
1.38278	55.484
1.39013	56.000
1.39747	56.369
1.40482	48.154
1.41215	51.074
1.41948	49.948
1.42685	45.209
1.43417	44.940
1.44152	44.659
1.44883	41.196
1.45618	40.039
1.46350	35.861
1.47085	43.320
1.47818	36.969
1.48553	36.774
1.49287	35.733
1.50020	30.746
1.50753	32.745
1.51488	32.263
1.52222	28.607
1.52953	34.009
1.53688	35.349
1.54423	31.036
1.55158	27.710
1.55892	27.545
1.56625	29.565
1.57358	26.352
1.58092	27.246
1.58825	26.563
1.59558	100.000
1.60293	100.000
1.61027	100.000
1.61760	100.000
1.62493	100.000
1.63227	100.000
1.63962	100.000
1.64693	100.000
1.65428	100.000
1.66163	100.000
1.66897	98.923
1.67630	79.239
1.68363	67.416
1.69097	49.472
1.69830	46.301
1.70565	37.851
1.71298	33.093
1.72032	31.689
1.72765	86.462
1.73498	98.837
1.74233	63.818
1.74967	30.579
1.75702	31.320
1.76435	34.525
1.77168	30.347
1.77902	32.419
1.78637	33.276
1.79368	32.272
1.80102	33.734
1.80837	33.005
1.81572	36.996
1.82305	33.850
1.83038	36.911
1.83773	37.869
1.84507	39.465
1.85240	36.047
1.85973	37.601
1.86707	35.144
1.87440	41.187
1.88173	37.405
1.88908	36.212
1.89643	35.666
1.90375	34.308
1.91110	34.134
1.91842	36.768
1.92575	37.289
1.93310	34.183
1.94047	38.718
1.94777	34.335
1.95512	36.179
1.96245	33.969
1.96980	33.081
1.97712	34.814
1.98445	30.984
1.99178	31.705
1.99913	34.415
2.00648	33.463
2.01382	37.518
2.02113	34.659
2.02847	34.872
2.03582	37.024
2.04317	33.359
2.05050	34.338
2.05783	32.202
2.06517	33.649
2.07250	41.092
2.07983	39.703
2.08718	33.572
2.09453	35.217
2.10185	37.909
2.10920	36.295
2.11653	36.819
2.12388	38.379
2.13122	37.500
2.13855	40.042
2.14588	42.834
2.15323	38.889
2.16057	42.029
2.16790	40.979
2.17523	37.427
2.18257	42.023
2.18990	72.192
2.19725	100.000
2.20458	100.000
2.21192	100.000
2.21927	100.000
2.22662	88.602
2.23393	47.141
2.24128	39.944
2.24862	39.984
2.25595	40.259
2.26328	39.621
2.27060	36.783
2.27793	36.957
2.28530	38.440
2.29263	39.539
2.29998	35.004
2.30730	39.273
2.31463	33.240
2.32198	34.351
2.32932	33.588
2.33667	36.914
2.34398	34.155
2.35133	36.038
2.35867	37.772
2.36600	35.376
2.37335	34.824
2.38068	34.399
2.38802	32.346
2.39537	35.977
2.40268	32.507
2.41003	35.181
2.41738	33.105
2.42470	32.394
2.43203	34.894
2.43938	32.144
2.44672	32.950
2.45405	35.318
2.46140	36.026
2.46872	34.402
2.47607	36.880
2.48340	35.117
2.49073	37.204
2.49808	35.992
2.50540	32.657
2.51273	35.654
2.52008	33.844
2.52742	36.307
2.53477	35.260
2.54210	36.163
2.54943	37.918
2.55677	36.108
2.56412	36.276
2.57145	34.277
2.57878	36.270
2.58612	37.283
2.59347	36.377
2.60080	37.033
2.60813	33.981
2.61547	34.674
2.62282	35.654
2.63015	32.446
2.63747	34.332
2.64483	33.624
2.65217	32.352
2.65950	34.061
2.66685	34.921
2.67417	35.532
2.68150	35.818
2.68883	37.543
2.69618	40.329
2.70352	36.804
2.71085	38.623
2.71818	38.855
2.72552	36.569
2.73287	39.700
2.74022	40.051
2.74755	38.663
2.75490	41.846
2.76222	40.778
2.76955	42.770
2.77690	41.296
2.78423	39.120
2.79157	39.172
2.79888	38.748
2.80625	42.404
2.81358	35.074
2.82092	32.840
2.82827	33.026
2.83560	25.369
2.84293	25.705
2.85027	24.717
2.85760	30.145
2.86495	27.582
2.87228	26.651
2.87962	25.604
2.88697	25.845
2.89428	26.987
2.90163	23.837
2.90895	26.059
2.91632	15.890
2.92365	13.461
2.93097	12.440
2.93830	12.194
2.94565	12.212
2.95298	13.777
2.96033	12.815
2.96765	12.833
2.97498	12.050
2.98233	10.411
2.98968	11.428
2.99702	12.193
3.00435	10.583
3.01168	36.954
3.01903	85.492
3.02635	90.167
3.03368	100.000
3.04103	100.000
3.04837	91.028
3.05570	71.243
3.06305	60.678
3.07038	53.348
3.07773	41.635
3.08505	28.616
3.09238	27.850
3.09973	22.854
3.10707	21.352
3.11440	12.157
3.12175	9.531
3.12908	8.179
3.13640	7.938
3.14375	9.847
3.15110	9.087
3.15843	10.535
3.16575	9.182
3.17310	9.327
3.18045	9.733
3.18778	8.555
3.19513	8.163
3.20247	8.165
3.20980	9.007
3.21713	7.845
3.22447	8.180
3.23180	7.478
3.23913	7.985
3.24647	8.053
3.25382	7.275
3.26115	6.328
3.26848	6.750
3.27582	6.129
3.28317	6.659
3.29050	6.626
3.29783	5.383
3.30517	6.251
3.31252	6.243
3.31987	5.378
3.32718	5.627
3.33452	5.852
3.34187	4.280
3.34920	5.598
3.35653	5.806
3.36387	3.990
3.37120	4.906
3.37855	5.960
3.38588	5.305
3.39322	5.073
3.40055	4.591
3.40788	4.058
3.41523	4.221
3.42257	5.008
3.42992	4.784
3.43727	5.161
3.44458	4.259
3.45192	3.497
3.45925	3.853
3.46658	3.423
3.47393	3.981
3.48127	3.743
3.48860	3.827
3.49593	3.568
3.50330	4.546
}
[PEAK]
{
Peak ID	2
Peak Ref	20
Time	1.0673
Peak	1.0380	1.0820
Intensity	19221502.00	21320750.00
Height	112711728.00
AreaAbs	2553004.0000
Area %BP	10.33
Area %Total	4.70
Width	0.04
Response Test	0
}
[PEAK]
{
Peak ID	3
Peak Ref	21
Time	1.0893
Peak	1.0820	1.3168
Intensity	21320750.00	32518864.00
Height	112547232.00
AreaAbs	24711550.0000
Area %BP	100.00
Area %Total	45.49
Width	0.23
Response Test	0
}
[PEAK]
{
Peak ID	8
Peak Ref	22
Time	1.3314
Peak	1.3168	1.5002
Intensity	32518864.00	41267200.00
Height	100999376.00
AreaAbs	7658242.0000
Area %BP	30.99
Area %Total	14.10
Width	0.18
Response Test	0
}
[PEAK]
{
Peak ID	11
Peak Ref	23
Time	1.5956
Peak	1.5883	1.7130
Intensity	35651584.00	44417024.00
Height	98050808.00
AreaAbs	8882608.0000
Area %BP	35.95
Area %Total	16.35
Width	0.12
Response Test	0
}
[PEAK]
{
Peak ID	14
Peak Ref	24
Time	2.1972
Peak	2.1752	2.2706
Intensity	50233344.00	49369088.00
Height	84183904.00
AreaAbs	3590940.5000
Area %BP	14.53
Area %Total	6.61
Width	0.10
Response Test	0
}
[PEAK]
{
Peak ID	19
Peak Ref	25
Time	3.0337
Peak	3.0043	3.1291
Intensity	14204928.00	10978304.00
Height	120771600.00
AreaAbs	6920802.5000
Area %BP	28.01
Area %Total	12.74
Width	0.12
Response Test	0
}
}
[CHROMATOGRAM]
{
TraceNumber	3
Description	MS ES+ :338+316 1.5000Da
TargetMass	315.0000
ProcDesc
MaxIntensity	51004080.00
[TRACE]
{
0.50232	0.000
0.50965	0.000
0.51700	0.000
0.52433	21.717
0.53167	6.200
0.53900	3.423
0.54633	3.463
0.55368	1.896
0.56103	2.148
0.56835	3.154
0.57568	1.900
0.58303	2.668
0.59037	0.463
0.59772	5.054
0.60505	2.239
0.61238	3.337
0.61972	4.007
0.62705	2.952
0.63438	7.668
0.64173	2.854
0.64907	5.966
0.65640	2.447
0.66375	3.936
0.67107	3.189
0.67843	2.761
0.68575	2.739
0.69308	3.186
0.70043	2.534
0.70777	2.208
0.71510	3.901
0.72245	2.016
0.72977	5.941
0.73712	3.316
0.74445	1.932
0.75178	4.973
0.75915	3.466
0.76647	4.093
0.77380	3.928
0.78113	3.745
0.78847	2.636
0.79580	3.335
0.80313	1.141
0.81048	1.451
0.81783	3.169
0.82517	2.569
0.83250	2.819
0.83983	3.620
0.84718	0.951
0.85450	3.313
0.86185	1.946
0.86920	4.330
0.87652	3.344
0.88385	1.267
0.89122	3.983
0.89853	1.593
0.90588	1.931
0.91322	1.123
0.92053	3.068
0.92788	2.368
0.93522	2.633
0.94257	2.983
0.94990	3.930
0.95725	2.993
0.96457	2.947
0.97190	2.677
0.97923	3.440
0.98658	3.266
0.99392	3.505
1.00125	2.959
1.00858	4.777
1.01592	3.367
1.02327	4.341
1.03060	3.531
1.03795	4.368
1.04528	8.437
1.05263	6.614
1.05995	5.262
1.06730	3.566
1.07463	7.980
1.08197	6.971
1.08930	3.710
1.09665	5.391
1.10398	4.343
1.11130	3.921
1.11865	2.187
1.12598	3.010
1.13332	2.670
1.14065	4.087
1.14800	3.394
1.15535	4.263
1.16267	4.659
1.17000	3.719
1.17733	5.383
1.18468	5.503
1.19203	8.569
1.19937	9.162
1.20670	9.080
1.21405	12.842
1.22138	13.579
1.22872	9.583
1.23605	12.632
1.24337	12.930
1.25072	8.640
1.25805	11.521
1.26538	14.208
1.27275	15.271
1.28007	9.329
1.28742	14.756
1.29475	18.923
1.30207	15.431
1.30943	21.000
1.31677	47.372
1.32412	54.247
1.33143	33.125
1.33877	20.657
1.34610	14.942
1.35345	12.813
1.36078	10.354
1.36812	18.392
1.37547	17.958
1.38278	21.232
1.39013	22.596
1.39747	18.003
1.40482	15.046
1.41215	17.787
1.41948	12.670
1.42685	17.117
1.43417	18.053
1.44152	27.434
1.44883	22.336
1.45618	19.905
1.46350	26.173
1.47085	13.781
1.47818	16.328
1.48553	27.312
1.49287	17.843
1.50020	12.168
1.50753	22.400
1.51488	20.037
1.52222	22.352
1.52953	22.614
1.53688	17.551
1.54423	16.162
1.55158	14.708
1.55892	19.883
1.56625	18.187
1.57358	20.337
1.58092	22.003
1.58825	13.143
1.59558	12.043
1.60293	9.737
1.61027	13.446
1.61760	13.036
1.62493	11.532
1.63227	8.572
1.63962	16.875
1.64693	21.194
1.65428	19.014
1.66163	17.504
1.66897	11.700
1.67630	18.378
1.68363	22.928
1.69097	16.360
1.69830	16.752
1.70565	25.585
1.71298	25.786
1.72032	21.902
1.72765	19.506
1.73498	18.900
1.74233	22.998
1.74967	15.219
1.75702	21.145
1.76435	27.888
1.77168	26.557
1.77902	21.541
1.78637	19.912
1.79368	20.926
1.80102	21.159
1.80837	12.138
1.81572	21.071
1.82305	26.243
1.83038	14.852
1.83773	20.411
1.84507	21.706
1.85240	23.816
1.85973	18.611
1.86707	25.178
1.87440	16.327
1.88173	20.396
1.88908	24.934
1.89643	24.563
1.90375	20.088
1.91110	22.150
1.91842	26.533
1.92575	20.469
1.93310	24.771
1.94047	24.117
1.94777	19.892
1.95512	27.256
1.96245	19.931
1.96980	24.799
1.97712	31.045
1.98445	24.968
1.99178	26.544
1.99913	23.664
2.00648	24.367
2.01382	25.761
2.02113	27.512
2.02847	21.127
2.03582	32.768
2.04317	26.284
2.05050	20.267
2.05783	36.344
2.06517	28.677
2.07250	28.559
2.07983	29.581
2.08718	39.028
2.09453	26.120
2.10185	27.305
2.10920	37.008
2.11653	28.397
2.12388	33.854
2.13122	36.194
2.13855	31.703
2.14588	34.329
2.15323	29.811
2.16057	46.368
2.16790	62.528
2.17523	83.920
2.18257	70.720
2.18990	45.881
2.19725	42.659
2.20458	34.895
2.21192	41.689
2.21927	27.331
2.22662	25.893
2.23393	28.267
2.24128	22.170
2.24862	23.991
2.25595	27.037
2.26328	27.563
2.27060	25.136
2.27793	28.301
2.28530	26.081
2.29263	37.082
2.29998	30.861
2.30730	22.094
2.31463	30.610
2.32198	27.111
2.32932	26.248
2.33667	28.055
2.34398	18.841
2.35133	24.699
2.35867	30.525
2.36600	29.156
2.37335	21.125
2.38068	21.983
2.38802	26.484
2.39537	24.332
2.40268	22.994
2.41003	25.968
2.41738	28.332
2.42470	28.821
2.43203	18.608
2.43938	27.103
2.44672	25.253
2.45405	23.934
2.46140	23.958
2.46872	29.638
2.47607	24.992
2.48340	18.097
2.49073	23.833
2.49808	22.589
2.50540	29.049
2.51273	21.987
2.52008	21.842
2.52742	18.092
2.53477	23.233
2.54210	20.539
2.54943	20.499
2.55677	25.312
2.56412	20.777
2.57145	20.671
2.57878	19.748
2.58612	29.207
2.59347	29.426
2.60080	27.183
2.60813	29.274
2.61547	29.470
2.62282	32.852
2.63015	26.526
2.63747	21.378
2.64483	24.368
2.65217	20.025
2.65950	24.218
2.66685	19.076
2.67417	25.967
2.68150	24.431
2.68883	22.857
2.69618	23.765
2.70352	22.545
2.71085	30.598
2.71818	18.479
2.72552	24.402
2.73287	26.721
2.74022	38.385
2.74755	61.869
2.75490	92.000
2.76222	100.000
2.76955	73.663
2.77690	53.649
2.78423	38.182
2.79157	29.632
2.79888	25.543
2.80625	22.059
2.81358	18.271
2.82092	13.421
2.82827	15.212
2.83560	25.314
2.84293	16.738
2.85027	12.422
2.85760	10.120
2.86495	9.460
2.87228	8.756
2.87962	10.789
2.88697	7.814
2.89428	5.759
2.90163	7.753
2.90895	4.914
2.91632	7.367
2.92365	6.388
2.93097	3.821
2.93830	6.292
2.94565	4.389
2.95298	3.108
2.96033	3.476
2.96765	5.589
2.97498	4.755
2.98233	2.631
2.98968	1.900
2.99702	5.468
3.00435	5.828
3.01168	7.258
3.01903	7.699
3.02635	6.567
3.03368	3.467
3.04103	8.044
3.04837	8.576
3.05570	5.260
3.06305	4.884
3.07038	4.897
3.07773	8.830
3.08505	5.752
3.09238	5.884
3.09973	1.686
3.10707	2.212
3.11440	5.126
3.12175	5.157
3.12908	4.773
3.13640	3.325
3.14375	3.621
3.15110	2.821
3.15843	0.313
3.16575	3.949
3.17310	2.902
3.18045	1.554
3.18778	1.827
3.19513	2.572
3.20247	4.294
3.20980	1.130
3.21713	2.460
3.22447	4.369
3.23180	5.482
3.23913	1.603
3.24647	3.556
3.25382	1.859
3.26115	6.809
3.26848	2.682
3.27582	1.978
3.28317	1.809
3.29050	2.479
3.29783	1.608
3.30517	1.359
3.31252	2.797
3.31987	1.721
3.32718	4.480
3.33452	4.222
3.34187	2.011
3.34920	1.216
3.35653	2.030
3.36387	0.478
3.37120	3.772
3.37855	1.972
3.38588	5.896
3.39322	2.007
3.40055	3.374
3.40788	2.155
3.41523	0.718
3.42257	3.939
3.42992	2.932
3.43727	1.268
3.44458	1.769
3.45192	3.629
3.45925	1.892
3.46658	1.850
3.47393	1.830
3.48127	1.409
3.48860	2.987
3.49593	3.012
3.50330	1.630
}
}
[CHROMATOGRAM]
{
TraceNumber	4
Description	MS ES+ :339+317 1.5000Da
TargetMass	316.0000
ProcDesc
MaxIntensity	56499868.00
[TRACE]
{
0.50232	0.000
0.50965	0.000
0.51700	0.000
0.52433	22.853
0.53167	6.270
0.53900	2.955
0.54633	2.939
0.55368	1.379
0.56103	3.264
0.56835	2.347
0.57568	1.838
0.58303	1.770
0.59037	1.387
0.59772	5.498
0.60505	3.183
0.61238	2.152
0.61972	2.914
0.62705	2.113
0.63438	4.528
0.64173	3.892
0.64907	4.263
0.65640	2.290
0.66375	3.910
0.67107	2.737
0.67843	2.546
0.68575	3.948
0.69308	3.419
0.70043	2.845
0.70777	1.078
0.71510	2.857
0.72245	2.332
0.72977	4.909
0.73712	4.046
0.74445	1.212
0.75178	2.631
0.75915	3.442
0.76647	3.005
0.77380	1.953
0.78113	1.823
0.78847	2.138
0.79580	2.881
0.80313	0.991
0.81048	0.415
0.81783	1.456
0.82517	2.597
0.83250	2.952
0.83983	2.166
0.84718	2.267
0.85450	2.767
0.86185	1.042
0.86920	4.898
0.87652	2.127
0.88385	1.899
0.89122	3.780
0.89853	1.639
0.90588	3.620
0.91322	2.947
0.92053	1.573
0.92788	4.508
0.93522	2.968
0.94257	0.490
0.94990	3.058
0.95725	2.944
0.96457	2.481
0.97190	1.659
0.97923	2.348
0.98658	3.639
0.99392	3.247
1.00125	2.857
1.00858	3.816
1.01592	2.660
1.02327	3.356
1.03060	4.552
1.03795	5.513
1.04528	6.992
1.05263	2.830
1.05995	3.299
1.06730	3.519
1.07463	3.905
1.08197	7.356
1.08930	5.033
1.09665	3.746
1.10398	4.055
1.11130	2.671
1.11865	3.010
1.12598	2.649
1.13332	2.049
1.14065	3.793
1.14800	2.148
1.15535	8.497
1.16267	10.430
1.17000	8.225
1.17733	7.152
1.18468	9.356
1.19203	11.897
1.19937	12.781
1.20670	14.252
1.21405	16.524
1.22138	12.265
1.22872	10.095
1.23605	7.170
1.24337	9.705
1.25072	10.695
1.25805	15.578
1.26538	14.032
1.27275	13.247
1.28007	13.524
1.28742	13.793
1.29475	10.884
1.30207	12.140
1.30943	35.198
1.31677	93.085
1.32412	100.000
1.33143	53.938
1.33877	25.310
1.34610	20.769
1.35345	13.789
1.36078	19.030
1.36812	17.079
1.37547	24.655
1.38278	41.622
1.39013	48.790
1.39747	44.075
1.40482	21.727
1.41215	20.140
1.41948	16.734
1.42685	10.925
1.43417	13.961
1.44152	15.014
1.44883	17.449
1.45618	18.242
1.46350	26.278
1.47085	20.021
1.47818	17.859
1.48553	17.554
1.49287	14.446
1.50020	9.582
1.50753	14.087
1.51488	19.558
1.52222	37.204
1.52953	38.462
1.53688	27.304
1.54423	20.376
1.55158	14.670
1.55892	16.633
1.56625	18.609
1.57358	19.730
1.58092	22.070
1.58825	19.121
1.59558	14.373
1.60293	10.177
1.61027	15.432
1.61760	11.732
1.62493	12.940
1.63227	9.573
1.63962	15.793
1.64693	15.044
1.65428	17.430
1.66163	14.723
1.66897	16.663
1.67630	20.060
1.68363	21.907
1.69097	18.873
1.69830	12.585
1.70565	22.229
1.71298	14.962
1.72032	16.901
1.72765	16.519
1.73498	16.863
1.74233	20.136
1.74967	15.475
1.75702	25.508
1.76435	20.576
1.77168	17.144
1.77902	18.585
1.78637	21.083
1.79368	20.423
1.80102	19.710
1.80837	20.606
1.81572	19.586
1.82305	17.421
1.83038	25.237
1.83773	21.235
1.84507	20.231
1.85240	22.697
1.85973	21.911
1.86707	24.415
1.87440	25.584
1.88173	24.137
1.88908	29.248
1.89643	22.559
1.90375	26.901
1.91110	22.451
1.91842	21.665
1.92575	20.777
1.93310	27.052
1.94047	23.632
1.94777	18.713
1.95512	24.687
1.96245	24.142
1.96980	30.976
1.97712	22.343
1.98445	23.969
1.99178	28.980
1.99913	26.373
2.00648	24.827
2.01382	29.771
2.02113	28.121
2.02847	27.998
2.03582	26.541
2.04317	35.038
2.05050	26.681
2.05783	34.248
2.06517	27.424
2.07250	38.421
2.07983	31.378
2.08718	39.936
2.09453	31.079
2.10185	37.430
2.10920	34.990
2.11653	31.210
2.12388	29.070
2.13122	35.759
2.13855	32.179
2.14588	29.348
2.15323	22.457
2.16057	35.338
2.16790	34.734
2.17523	44.965
2.18257	43.149
2.18990	37.418
2.19725	30.678
2.20458	26.944
2.21192	31.848
2.21927	29.538
2.22662	29.647
2.23393	33.199
2.24128	25.947
2.24862	26.564
2.25595	23.450
2.26328	26.677
2.27060	27.738
2.27793	35.213
2.28530	28.055
2.29263	30.080
2.29998	27.626
2.30730	30.412
2.31463	32.681
2.32198	30.472
2.32932	25.215
2.33667	28.158
2.34398	27.222
2.35133	24.791
2.35867	26.731
2.36600	34.871
2.37335	25.139
2.38068	32.754
2.38802	28.850
2.39537	38.049
2.40268	30.037
2.41003	23.277
2.41738	28.621
2.42470	31.805
2.43203	30.964
2.43938	29.387
2.44672	29.320
2.45405	32.283
2.46140	32.376
2.46872	37.091
2.47607	36.737
2.48340	28.468
2.49073	27.501
2.49808	25.197
2.50540	34.880
2.51273	26.220
2.52008	24.387
2.52742	27.479
2.53477	21.729
2.54210	27.125
2.54943	21.424
2.55677	32.760
2.56412	22.980
2.57145	22.613
2.57878	28.959
2.58612	32.156
2.59347	28.267
2.60080	30.457
2.60813	27.684
2.61547	30.741
2.62282	28.055
2.63015	29.530
2.63747	21.541
2.64483	24.497
2.65217	20.264
2.65950	23.589
2.66685	22.355
2.67417	23.693
2.68150	25.209
2.68883	29.596
2.69618	24.769
2.70352	24.735
2.71085	29.251
2.71818	26.530
2.72552	28.842
2.73287	25.196
2.74022	37.704
2.74755	54.901
2.75490	68.416
2.76222	80.465
2.76955	61.178
2.77690	42.353
2.78423	34.225
2.79157	32.969
2.79888	27.688
2.80625	24.153
2.81358	17.184
2.82092	21.225
2.82827	17.756
2.83560	19.207
2.84293	17.060
2.85027	12.893
2.85760	14.937
2.86495	11.905
2.87228	8.775
2.87962	11.071
2.88697	7.317
2.89428	9.401
2.90163	4.814
2.90895	4.158
2.91632	6.532
2.92365	6.476
2.93097	1.902
2.93830	2.769
2.94565	2.496
2.95298	2.895
2.96033	3.376
2.96765	5.383
2.97498	2.874
2.98233	1.819
2.98968	3.212
2.99702	4.609
3.00435	4.684
3.01168	9.433
3.01903	6.268
3.02635	10.217
3.03368	6.257
3.04103	9.440
3.04837	6.277
3.05570	3.568
3.06305	5.747
3.07038	3.284
3.07773	4.424
3.08505	6.432
3.09238	3.194
3.09973	1.977
3.10707	3.333
3.11440	3.799
3.12175	6.740
3.12908	4.529
3.13640	3.407
3.14375	2.734
3.15110	5.177
3.15843	1.942
3.16575	5.749
3.17310	3.284
3.18045	1.281
3.18778	3.888
3.19513	1.516
3.20247	0.879
3.20980	2.165
3.21713	1.883
3.22447	3.168
3.23180	1.095
3.23913	3.463
3.24647	3.182
3.25382	2.584
3.26115	4.694
3.26848	2.035
3.27582	1.629
3.28317	0.761
3.29050	1.875
3.29783	1.280
3.30517	2.887
3.31252	4.615
3.31987	1.939
3.32718	1.813
3.33452	2.128
3.34187	1.927
3.34920	2.417
3.35653	1.776
3.36387	1.413
3.37120	4.019
3.37855	4.120
3.38588	4.333
3.39322	2.384
3.40055	2.681
3.40788	0.367
3.41523	1.692
3.42257	2.935
3.42992	0.793
3.43727	0.893
3.44458	1.079
3.45192	2.770
3.45925	1.246
3.46658	2.426
3.47393	3.309
3.48127	2.285
3.48860	0.831
3.49593	2.899
3.50330	3.333
}
}
}
[FUNCTION]
{
Function	2
IonMode	ES- 
Type	MS 
Description	(100:500) 
[SPECTRUM]
{
ProcDesc	Center (Top,4, Ar); Smooth (Mn, 2x0.75); Subtract (1,40.00 ,0.010); Combine (146:152-(124:131+170:177))
State	Diversity fail
Peak ID	3
Peak Ref	30
Time	1.0933
TIC	36766
BPI	9653
BPM	154.6533
Continuum	FALSE
Saved	FALSE
[MASSES]
{
;Mass	Exp. Mass	Obs. Mass	% BPI	Int. Abs	Adducted Formula
315.0000	314.0000	0.0000	0.00	0.00	
316.0000	315.0000	0.0000	0.00	0.00	
}
[RESULTS]
{
;Mass	Found	% BPI	% Purity	Confirmed	Status
315.0000	0	0.00	0.00	0	
316.0000	0	0.00	0.00	0	
}
[MS]
{
;Mass	% BPI
102.68	19.582
106.96	61.740
112.63	49.909
133.71	22.651
154.65	100.000
188.34	19.283
199.20	54.038
223.50	15.401
248.92	16.058
261.04	22.202
}
}
[SPECTRUM]
{
ProcDesc	Center (Top,4, Ar); Smooth (Mn, 2x0.75); Subtract (1,40.00 ,0.010); Combine (218:224-(197:203+246:252))
State	Diversity fail
Peak ID	11
Peak Ref	27
Time	1.6213
TIC	46781
BPI	13181
BPM	116.9019
Continuum	FALSE
Saved	FALSE
[MASSES]
{
;Mass	Exp. Mass	Obs. Mass	% BPI	Int. Abs	Adducted Formula
315.0000	314.0000	0.0000	0.00	0.00	
316.0000	315.0000	0.0000	0.00	0.00	
}
[RESULTS]
{
;Mass	Found	% BPI	% Purity	Confirmed	Status
315.0000	0	0.00	0.00	0	
316.0000	0	0.00	0.00	0	
}
[MS]
{
;Mass	% BPI
100.37	22.903
101.00	27.059
103.87	24.021
105.28	21.441
109.13	34.765
116.90	100.000
117.81	61.602
130.07	19.054
133.50	22.368
200.04	21.710
}
}
[CHROMATOGRAM]
{
TraceNumber	5
Description	MS ES- :TIC
ProcDesc
MaxIntensity	75399512.00
[TRACE]
{
0.49867	0.023
0.50598	0.022
0.51332	0.033
0.52065	0.021
0.52800	0.361
0.53533	1.192
0.54267	1.254
0.55002	1.061
0.55735	0.509
0.56468	0.576
0.57202	0.227
0.57937	0.868
0.58672	1.246
0.59403	0.634
0.60138	0.865
0.60872	0.918
0.61603	0.759
0.62338	0.287
0.63073	0.462
0.63805	0.303
0.64540	0.276
0.65273	0.336
0.66007	0.457
0.66742	0.477
0.67475	0.746
0.68208	0.280
0.68945	0.576
0.69675	1.340
0.70410	0.345
0.71143	0.330
0.71877	0.505
0.72610	0.351
0.73345	0.216
0.74078	0.643
0.74812	0.388
0.75545	0.702
0.76280	0.407
0.77015	0.281
0.77745	0.409
0.78482	0.518
0.79213	0.536
0.79947	0.366
0.80682	0.370
0.81415	0.640
0.82150	0.227
0.82882	0.045
0.83617	0.322
0.84350	0.201
0.85085	0.169
0.85818	0.805
0.86552	0.274
0.87285	0.257
0.88020	0.630
0.88755	0.286
0.89485	0.374
0.90220	0.610
0.90953	0.357
0.91688	0.123
0.92420	0.413
0.93155	0.591
0.93890	0.432
0.94622	0.487
0.95357	0.102
0.96090	0.166
0.96825	0.325
0.97557	0.399
0.98290	0.523
0.99025	0.089
0.99758	0.574
1.00493	0.579
1.01227	0.295
1.01960	0.100
1.02693	0.263
1.03427	0.351
1.04162	0.237
1.04895	0.334
1.05628	0.690
1.06362	0.298
1.07097	0.269
1.07830	0.248
1.08563	0.422
1.09297	3.340
1.10030	20.803
1.10765	48.535
1.11498	65.153
1.12232	72.267
1.12965	77.737
1.13700	73.423
1.14432	58.757
1.15168	42.635
1.15900	26.249
1.16633	16.884
1.17368	11.561
1.18102	12.596
1.18835	15.298
1.19568	14.749
1.20303	10.441
1.21037	7.206
1.21770	5.220
1.22503	3.546
1.23238	3.131
1.23972	2.934
1.24705	2.958
1.25438	2.693
1.26172	2.344
1.26907	1.870
1.27642	1.580
1.28375	1.909
1.29107	2.029
1.29842	2.422
1.30577	2.927
1.31310	3.135
1.32043	2.335
1.32777	2.266
1.33510	2.638
1.34243	2.426
1.34977	2.954
1.35712	2.778
1.36445	2.134
1.37182	2.192
1.37912	1.618
1.38647	1.407
1.39380	1.731
1.40113	1.547
1.40848	1.422
1.41583	1.250
1.42315	1.149
1.43048	1.336
1.43783	1.554
1.44517	0.991
1.45252	1.218
1.45983	0.766
1.46718	0.985
1.47452	0.899
1.48188	1.132
1.48920	0.741
1.49653	0.929
1.50387	1.044
1.51122	1.646
1.51855	1.522
1.52588	0.795
1.53323	0.743
1.54057	0.941
1.54790	0.941
1.55523	0.634
1.56255	0.958
1.56990	0.872
1.57723	0.571
1.58458	0.844
1.59192	0.844
1.59925	3.101
1.60658	26.532
1.61393	75.144
1.62127	100.000
1.62862	88.445
1.63595	57.674
1.64327	29.585
1.65062	15.095
1.65797	9.233
1.66528	6.006
1.67262	4.767
1.67997	3.152
1.68730	2.112
1.69463	2.058
1.70198	1.715
1.70932	2.205
1.71665	1.516
1.72398	2.275
1.73133	1.461
1.73867	2.219
1.74598	1.808
1.75335	1.037
1.76067	1.639
1.76800	1.742
1.77533	1.651
1.78268	1.696
1.79003	1.725
1.79737	1.538
1.80472	1.580
1.81203	1.400
1.81938	1.660
1.82672	1.178
1.83405	1.794
1.84137	1.025
1.84872	0.949
1.85607	1.319
1.86340	1.147
1.87073	1.552
1.87807	1.530
1.88542	1.161
1.89275	2.123
1.90008	1.249
1.90742	1.099
1.91477	1.752
1.92210	0.961
1.92943	1.227
1.93677	2.023
1.94410	2.097
1.95143	1.433
1.95878	1.326
1.96613	1.378
1.97345	1.045
1.98080	1.436
1.98813	1.339
1.99545	1.898
2.00280	1.709
2.01013	2.125
2.01748	1.412
2.02482	2.487
2.03215	2.403
2.03950	1.415
2.04683	1.364
2.05415	1.892
2.06150	1.823
2.06885	1.390
2.07618	2.348
2.08350	1.596
2.09087	1.804
2.09820	2.330
2.10553	2.588
2.11288	2.575
2.12020	2.032
2.12753	2.400
2.13488	2.082
2.14222	2.487
2.14957	2.465
2.15688	2.737
2.16422	1.942
2.17155	3.050
2.17892	2.582
2.18623	2.863
2.19357	3.010
2.20090	3.789
2.20825	4.965
2.21558	4.767
2.22292	5.188
2.23027	3.791
2.23760	3.053
2.24495	2.905
2.25227	2.732
2.25962	2.450
2.26695	2.713
2.27428	2.413
2.28163	2.201
2.28897	2.640
2.29630	2.450
2.30363	1.920
2.31097	1.990
2.31830	1.996
2.32565	2.072
2.33297	2.115
2.34032	2.197
2.34765	2.161
2.35500	2.370
2.36233	2.507
2.36967	1.582
2.37700	1.947
2.38437	2.047
2.39168	2.210
2.39902	2.055
2.40635	1.648
2.41372	2.310
2.42102	1.773
2.42837	1.864
2.43570	2.653
2.44303	2.732
2.45038	2.215
2.45770	2.087
2.46505	2.125
2.47238	2.414
2.47972	1.773
2.48707	1.979
2.49440	1.915
2.50173	1.592
2.50908	2.704
2.51642	2.265
2.52375	2.140
2.53108	1.838
2.53842	1.736
2.54577	1.827
2.55310	1.885
2.56045	2.188
2.56780	1.686
2.57513	2.118
2.58245	1.248
2.58978	1.819
2.59713	1.979
2.60445	1.721
2.61180	2.148
2.61915	1.883
2.62647	2.060
2.63380	2.003
2.64113	1.759
2.64848	1.879
2.65582	2.019
2.66317	2.127
2.67050	2.563
2.67783	1.863
2.68517	1.537
2.69250	2.612
2.69985	2.490
2.70717	2.143
2.71452	1.676
2.72187	1.528
2.72918	1.805
2.73653	1.561
2.74387	2.229
2.75122	2.096
2.75853	1.699
2.76590	1.805
2.77322	2.162
2.78057	1.800
2.78790	1.946
2.79523	1.463
2.80257	1.923
2.80990	1.480
2.81725	1.177
2.82457	1.416
2.83193	1.366
2.83925	0.993
2.84658	0.854
2.85393	0.881
2.86127	0.897
2.86862	1.208
2.87595	0.963
2.88330	0.643
2.89063	0.709
2.89797	0.553
2.90530	0.487
2.91263	0.624
2.91998	0.883
2.92730	0.723
2.93465	0.885
2.94198	0.918
2.94932	1.086
2.95665	0.826
2.96400	1.107
2.97133	0.504
2.97867	0.881
2.98600	0.183
2.99333	0.215
3.00068	0.821
3.00802	0.747
3.01535	0.940
3.02268	0.664
3.03003	0.848
3.03737	1.245
3.04470	1.002
3.05203	0.588
3.05937	0.586
3.06672	0.906
3.07407	0.641
3.08140	0.736
3.08872	0.523
3.09607	0.478
3.10340	0.514
3.11073	0.301
3.11807	0.624
3.12542	0.522
3.13275	0.379
3.14008	0.283
3.14743	0.574
3.15477	0.495
3.16208	0.198
3.16943	0.346
3.17677	0.220
3.18410	0.201
3.19143	0.163
3.19878	0.210
3.20613	0.370
3.21345	0.322
3.22080	0.295
3.22813	0.127
3.23547	0.308
3.24282	0.134
3.25013	0.306
3.25748	0.467
3.26480	0.099
3.27215	0.241
3.27948	0.200
3.28682	0.206
3.29418	0.075
3.30150	0.222
3.30885	0.071
3.31618	0.241
3.32352	0.148
3.33085	0.102
3.33820	0.234
3.34552	0.227
3.35287	0.506
3.36022	0.487
3.36753	0.279
3.37488	0.275
3.38220	0.083
3.38957	0.219
3.39688	0.210
3.40422	0.226
3.41157	0.235
3.41890	0.186
3.42623	0.258
3.43357	0.263
3.44090	0.279
3.44823	0.066
3.45558	0.211
3.46292	0.248
3.47028	0.316
3.47760	0.557
3.48493	0.061
3.49228	0.466
3.49960	0.986
}
[PEAK]
{
Peak ID	3
Peak Ref	26
Time	1.1296
Peak	1.0856	1.1737
Intensity	318025.75	8717131.00
Height	54096708.00
AreaAbs	2433551.2500
Area %BP	100.00
Area %Total	52.06
Width	0.09
Response Test	0
}
[PEAK]
{
Peak ID	11
Peak Ref	27
Time	1.6213
Peak	1.5919	1.7020
Intensity	636635.50	1293461.75
Height	74587728.00
AreaAbs	2240908.0000
Area %BP	92.08
Area %Total	47.94
Width	0.11
Response Test	0
}
}
[CHROMATOGRAM]
{
TraceNumber	6
Description	MS ES- :BPI
ProcDesc
MaxIntensity	425392.00
[TRACE]
{
0.49867	0.344
0.50598	0.413
0.51332	1.032
0.52065	0.481
0.52800	21.733
0.53533	45.804
0.54267	39.820
0.55002	45.255
0.55735	17.538
0.56468	35.284
0.57202	11.760
0.57937	27.648
0.58672	46.906
0.59403	30.262
0.60138	24.416
0.60872	36.247
0.61603	32.738
0.62338	16.850
0.63073	29.986
0.63805	33.152
0.64540	18.982
0.65273	29.505
0.66007	49.107
0.66742	29.024
0.67475	45.187
0.68208	17.813
0.68945	25.035
0.69675	53.097
0.70410	29.849
0.71143	24.691
0.71877	28.749
0.72610	21.046
0.73345	19.463
0.74078	52.544
0.74812	19.052
0.75545	28.405
0.76280	23.728
0.77015	11.899
0.77745	22.215
0.78482	37.759
0.79213	29.024
0.79947	20.977
0.80682	16.163
0.81415	33.840
0.82150	10.179
0.82882	0.413
0.83617	24.553
0.84350	15.887
0.85085	10.110
0.85818	30.193
0.86552	33.908
0.87285	22.422
0.88020	72.283
0.88755	16.369
0.89485	34.457
0.90220	70.978
0.90953	30.537
0.91688	11.279
0.92420	28.336
0.93155	28.336
0.93890	36.176
0.94622	50.209
0.95357	8.047
0.96090	16.163
0.96825	30.606
0.97557	28.542
0.98290	30.951
0.99025	5.227
0.99758	73.799
1.00493	47.042
1.01227	16.919
1.01960	4.058
1.02693	17.538
1.03427	27.098
1.04162	22.559
1.04895	22.283
1.05628	27.717
1.06362	8.184
1.07097	15.131
1.07830	6.328
1.08563	27.442
1.09297	30.331
1.10030	34.731
1.10765	64.099
1.11498	41.336
1.12232	46.425
1.12965	49.930
1.13700	31.775
1.14432	40.302
1.15168	64.580
1.15900	18.570
1.16633	21.459
1.17368	27.786
1.18102	26.548
1.18835	28.336
1.19568	31.707
1.20303	11.967
1.21037	18.707
1.21770	32.049
1.22503	5.571
1.23238	19.463
1.23972	32.324
1.24705	50.483
1.25438	9.904
1.26172	50.137
1.26907	5.708
1.27642	6.259
1.28375	43.329
1.29107	17.332
1.29842	25.310
1.30577	31.775
1.31310	43.811
1.32043	52.616
1.32777	39.203
1.33510	84.594
1.34243	24.141
1.34977	30.537
1.35712	22.972
1.36445	20.702
1.37182	31.433
1.37912	20.220
1.38647	18.226
1.39380	39.820
1.40113	52.063
1.40848	29.643
1.41583	25.035
1.42315	27.648
1.43048	22.490
1.43783	40.648
1.44517	42.709
1.45252	25.585
1.45983	10.179
1.46718	15.543
1.47452	35.833
1.48188	23.246
1.48920	4.402
1.49653	18.089
1.50387	24.485
1.51122	41.471
1.51855	31.087
1.52588	19.602
1.53323	17.332
1.54057	29.299
1.54790	27.855
1.55523	18.639
1.56255	37.210
1.56990	30.743
1.57723	6.190
1.58458	28.886
1.59192	18.639
1.59925	77.993
1.60658	100.000
1.61393	40.648
1.62127	45.462
1.62862	27.579
1.63595	45.669
1.64327	13.549
1.65062	23.728
1.65797	33.840
1.66528	32.531
1.67262	46.632
1.67997	24.829
1.68730	19.189
1.69463	22.283
1.70198	43.879
1.70932	30.262
1.71665	19.189
1.72398	49.246
1.73133	40.648
1.73867	46.150
1.74598	19.945
1.75335	1.719
1.76067	20.977
1.76800	57.152
1.77533	40.648
1.78268	44.706
1.79003	31.636
1.79737	50.551
1.80472	34.321
1.81203	27.786
1.81938	40.234
1.82672	33.219
1.83405	32.396
1.84137	20.839
1.84872	5.777
1.85607	32.117
1.86340	16.232
1.87073	41.953
1.87807	29.299
1.88542	16.300
1.89275	49.246
1.90008	37.210
1.90742	12.173
1.91477	72.148
1.92210	17.332
1.92943	19.326
1.93677	47.730
1.94410	51.928
1.95143	22.972
1.95878	17.745
1.96613	34.870
1.97345	7.084
1.98080	48.283
1.98813	23.796
1.99545	29.092
2.00280	53.647
2.01013	28.818
2.01748	43.262
2.02482	52.270
2.03215	49.656
2.03950	21.733
2.04683	20.633
2.05415	24.416
2.06150	33.908
2.06885	10.936
2.07618	44.292
2.08350	19.945
2.09087	50.276
2.09820	38.997
2.10553	40.509
2.11288	40.990
2.12020	29.849
2.12753	56.603
2.13488	30.537
2.14222	39.820
2.14957	35.626
2.15688	29.781
2.16422	14.030
2.17155	83.563
2.17892	55.365
2.18623	61.350
2.19357	35.626
2.20090	30.743
2.20825	72.077
2.21558	17.469
2.22292	68.913
2.23027	37.894
2.23760	37.484
2.24495	41.543
2.25227	36.450
2.25962	29.574
2.26695	23.866
2.27428	35.766
2.28163	27.305
2.28897	32.049
2.29630	33.080
2.30363	22.490
2.31097	23.590
2.31830	31.361
2.32565	47.523
2.33297	49.314
2.34032	47.181
2.34765	33.152
2.35500	24.553
2.36233	40.234
2.36967	24.622
2.37700	17.813
2.38437	35.352
2.39168	44.913
2.39902	25.310
2.40635	21.046
2.41372	46.839
2.42102	15.131
2.42837	22.422
2.43570	65.750
2.44303	51.928
2.45038	26.410
2.45770	34.321
2.46505	24.966
2.47238	37.552
2.47972	26.479
2.48707	19.052
2.49440	22.559
2.50173	26.892
2.50908	79.576
2.51642	34.870
2.52375	49.174
2.53108	22.765
2.53842	28.542
2.54577	43.672
2.55310	37.691
2.56045	30.399
2.56780	32.531
2.57513	33.012
2.58245	8.116
2.58978	51.446
2.59713	36.522
2.60445	26.892
2.61180	48.832
2.61915	32.256
2.62647	27.029
2.63380	25.310
2.64113	17.332
2.64848	53.989
2.65582	30.468
2.66317	27.098
2.67050	35.487
2.67783	29.849
2.68517	18.019
2.69250	54.816
2.69985	53.507
2.70717	24.347
2.71452	35.213
2.72187	29.986
2.72918	20.496
2.73653	21.940
2.74387	25.860
2.75122	34.870
2.75853	48.005
2.76590	26.410
2.77322	69.327
2.78057	35.694
2.78790	26.479
2.79523	31.982
2.80257	33.494
2.80990	26.892
2.81725	37.827
2.82457	38.722
2.83193	37.138
2.83925	23.178
2.84658	25.516
2.85393	25.379
2.86127	38.790
2.86862	36.932
2.87595	28.199
2.88330	9.835
2.89063	28.542
2.89797	10.867
2.90530	11.967
2.91263	24.622
2.91998	19.189
2.92730	35.006
2.93465	24.829
2.94198	24.553
2.94932	54.745
2.95665	41.061
2.96400	46.357
2.97133	19.463
2.97867	56.671
2.98600	8.597
2.99333	9.010
3.00068	34.803
3.00802	50.965
3.01535	39.339
3.02268	18.913
3.03003	19.739
3.03737	47.523
3.04470	38.447
3.05203	7.703
3.05937	12.655
3.06672	35.420
3.07407	35.694
3.08140	34.114
3.08872	15.475
3.09607	28.818
3.10340	14.099
3.11073	21.527
3.11807	39.410
3.12542	23.796
3.13275	19.670
3.14008	11.830
3.14743	19.052
3.15477	32.738
3.16208	12.655
3.16943	16.093
3.17677	19.533
3.18410	6.052
3.19143	4.333
3.19878	21.252
3.20613	24.072
3.21345	19.463
3.22080	26.342
3.22813	5.915
3.23547	24.622
3.24282	8.735
3.25013	23.453
3.25748	22.696
3.26480	0.481
3.27215	9.079
3.27948	15.887
3.28682	20.426
3.29418	1.100
3.30150	11.073
3.30885	0.550
3.31618	19.052
3.32352	4.402
3.33085	2.889
3.33820	19.945
3.34552	28.129
3.35287	23.385
3.36022	34.870
3.36753	28.955
3.37488	37.278
3.38220	2.614
3.38957	27.648
3.39688	14.443
3.40422	20.289
3.41157	25.585
3.41890	14.856
3.42623	13.205
3.43357	16.575
3.44090	20.220
3.44823	1.788
3.45558	26.135
3.46292	13.824
3.47028	36.176
3.47760	22.283
3.48493	0.688
3.49228	41.061
3.49960	98.902
}
}
[CHROMATOGRAM]
{
TraceNumber	7
Description	MS ES- :314 1.5000Da
TargetMass	315.0000
ProcDesc
MaxIntensity	236105.00
[TRACE]
{
0.49867	0.000
0.50598	0.000
0.51332	0.000
0.52065	0.000
0.52800	0.000
0.53533	0.248
0.54267	0.000
0.55002	0.000
0.55735	0.000
0.56468	0.248
0.57202	0.000
0.57937	0.000
0.58672	0.000
0.59403	0.124
0.60138	0.000
0.60872	0.000
0.61603	0.124
0.62338	0.000
0.63073	0.000
0.63805	0.000
0.64540	0.000
0.65273	0.000
0.66007	0.000
0.66742	0.000
0.67475	0.000
0.68208	0.000
0.68945	0.000
0.69675	0.000
0.70410	0.372
0.71143	0.000
0.71877	0.496
0.72610	0.000
0.73345	0.000
0.74078	0.000
0.74812	0.000
0.75545	0.000
0.76280	0.000
0.77015	0.000
0.77745	0.000
0.78482	0.000
0.79213	0.124
0.79947	0.000
0.80682	0.000
0.81415	0.000
0.82150	0.000
0.82882	0.124
0.83617	0.000
0.84350	0.000
0.85085	0.743
0.85818	0.000
0.86552	0.000
0.87285	0.124
0.88020	0.000
0.88755	0.124
0.89485	0.000
0.90220	0.000
0.90953	0.000
0.91688	0.000
0.92420	0.000
0.93155	0.000
0.93890	0.000
0.94622	0.000
0.95357	0.000
0.96090	0.000
0.96825	0.000
0.97557	0.000
0.98290	0.620
0.99025	0.000
0.99758	0.372
1.00493	0.000
1.01227	0.000
1.01960	0.372
1.02693	0.372
1.03427	0.000
1.04162	0.000
1.04895	0.496
1.05628	0.000
1.06362	0.000
1.07097	0.000
1.07830	0.000
1.08563	0.620
1.09297	3.346
1.10030	30.361
1.10765	42.752
1.11498	73.234
1.12232	82.900
1.12965	75.713
1.13700	88.848
1.14432	69.640
1.15168	49.691
1.15900	31.971
1.16633	18.341
1.17368	11.772
1.18102	5.577
1.18835	13.383
1.19568	12.392
1.20303	13.879
1.21037	13.383
1.21770	4.585
1.22503	3.595
1.23238	2.975
1.23972	1.239
1.24705	3.718
1.25438	1.487
1.26172	2.355
1.26907	2.726
1.27642	2.850
1.28375	1.115
1.29107	2.354
1.29842	3.222
1.30577	2.602
1.31310	1.239
1.32043	1.859
1.32777	2.355
1.33510	2.478
1.34243	3.842
1.34977	4.090
1.35712	5.824
1.36445	1.240
1.37182	2.354
1.37912	0.620
1.38647	1.363
1.39380	0.248
1.40113	1.363
1.40848	0.372
1.41583	1.487
1.42315	2.974
1.43048	0.744
1.43783	1.116
1.44517	0.743
1.45252	1.487
1.45983	0.000
1.46718	0.496
1.47452	0.124
1.48188	0.124
1.48920	0.868
1.49653	0.248
1.50387	0.372
1.51122	0.248
1.51855	0.124
1.52588	0.124
1.53323	0.620
1.54057	0.124
1.54790	0.248
1.55523	0.124
1.56255	1.487
1.56990	0.124
1.57723	2.479
1.58458	0.372
1.59192	1.115
1.59925	3.965
1.60658	29.616
1.61393	56.754
1.62127	100.000
1.62862	95.292
1.63595	52.664
1.64327	29.988
1.65062	18.215
1.65797	9.542
1.66528	8.798
1.67262	3.223
1.67997	2.603
1.68730	0.000
1.69463	1.115
1.70198	0.868
1.70932	2.107
1.71665	0.867
1.72398	1.363
1.73133	1.735
1.73867	0.124
1.74598	1.239
1.75335	0.496
1.76067	1.611
1.76800	2.479
1.77533	0.992
1.78268	1.239
1.79003	0.620
1.79737	1.735
1.80472	1.115
1.81203	0.124
1.81938	3.223
1.82672	1.115
1.83405	0.372
1.84137	0.496
1.84872	1.116
1.85607	0.867
1.86340	0.620
1.87073	1.487
1.87807	0.000
1.88542	0.248
1.89275	0.124
1.90008	0.992
1.90742	0.620
1.91477	0.992
1.92210	0.124
1.92943	0.000
1.93677	1.735
1.94410	2.231
1.95143	0.372
1.95878	0.372
1.96613	1.363
1.97345	0.248
1.98080	1.735
1.98813	1.611
1.99545	0.867
2.00280	0.620
2.01013	0.248
2.01748	1.363
2.02482	1.983
2.03215	0.868
2.03950	0.372
2.04683	0.248
2.05415	0.620
2.06150	0.744
2.06885	2.974
2.07618	1.115
2.08350	0.496
2.09087	4.089
2.09820	0.868
2.10553	1.611
2.11288	0.992
2.12020	1.363
2.12753	1.487
2.13488	0.620
2.14222	2.354
2.14957	1.487
2.15688	0.124
2.16422	2.603
2.17155	0.867
2.17892	1.240
2.18623	1.858
2.19357	1.364
2.20090	3.098
2.20825	6.196
2.21558	2.850
2.22292	5.700
2.23027	1.487
2.23760	3.222
2.24495	2.230
2.25227	1.983
2.25962	3.346
2.26695	3.222
2.27428	5.205
2.28163	1.611
2.28897	1.983
2.29630	0.743
2.30363	0.744
2.31097	5.329
2.31830	1.239
2.32565	0.992
2.33297	2.107
2.34032	1.611
2.34765	2.231
2.35500	2.602
2.36233	2.603
2.36967	2.231
2.37700	0.992
2.38437	1.487
2.39168	0.992
2.39902	2.107
2.40635	2.726
2.41372	1.487
2.42102	0.743
2.42837	0.992
2.43570	1.116
2.44303	1.115
2.45038	3.222
2.45770	1.487
2.46505	3.470
2.47238	3.098
2.47972	0.743
2.48707	1.363
2.49440	0.744
2.50173	1.735
2.50908	0.620
2.51642	1.115
2.52375	3.346
2.53108	1.859
2.53842	0.248
2.54577	1.487
2.55310	0.124
2.56045	2.603
2.56780	4.461
2.57513	0.496
2.58245	0.620
2.58978	0.248
2.59713	0.000
2.60445	2.354
2.61180	1.611
2.61915	0.496
2.62647	1.363
2.63380	2.851
2.64113	0.620
2.64848	0.867
2.65582	1.487
2.66317	1.983
2.67050	2.231
2.67783	1.115
2.68517	2.107
2.69250	0.496
2.69985	0.992
2.70717	1.859
2.71452	1.239
2.72187	1.735
2.72918	1.363
2.73653	0.992
2.74387	2.602
2.75122	1.363
2.75853	1.859
2.76590	1.239
2.77322	0.372
2.78057	0.496
2.78790	0.496
2.79523	1.983
2.80257	0.000
2.80990	0.743
2.81725	1.239
2.82457	0.372
2.83193	0.248
2.83925	0.248
2.84658	0.124
2.85393	1.487
2.86127	0.248
2.86862	1.240
2.87595	0.000
2.88330	0.124
2.89063	0.000
2.89797	0.000
2.90530	0.744
2.91263	1.115
2.91998	0.248
2.92730	0.000
2.93465	0.248
2.94198	0.743
2.94932	0.496
2.95665	0.248
2.96400	0.000
2.97133	0.124
2.97867	0.000
2.98600	0.000
2.99333	0.000
3.00068	0.000
3.00802	0.124
3.01535	0.124
3.02268	0.124
3.03003	0.743
3.03737	0.000
3.04470	0.620
3.05203	0.000
3.05937	0.248
3.06672	0.000
3.07407	2.231
3.08140	0.000
3.08872	0.000
3.09607	0.124
3.10340	0.124
3.11073	0.372
3.11807	0.124
3.12542	0.743
3.13275	0.000
3.14008	0.496
3.14743	0.000
3.15477	0.000
3.16208	0.248
3.16943	0.124
3.17677	0.000
3.18410	0.248
3.19143	1.115
3.19878	0.000
3.20613	0.124
3.21345	0.000
3.22080	0.000
3.22813	0.000
3.23547	0.000
3.24282	0.000
3.25013	0.000
3.25748	0.000
3.26480	0.000
3.27215	0.000
3.27948	0.000
3.28682	0.000
3.29418	0.000
3.30150	0.000
3.30885	0.124
3.31618	0.124
3.32352	0.000
3.33085	0.000
3.33820	0.000
3.34552	0.124
3.35287	0.000
3.36022	0.124
3.36753	0.000
3.37488	0.000
3.38220	0.000
3.38957	0.248
3.39688	0.000
3.40422	0.372
3.41157	0.000
3.41890	0.124
3.42623	0.000
3.43357	0.000
3.44090	0.000
3.44823	0.000
3.45558	0.000
3.46292	0.000
3.47028	0.000
3.47760	0.000
3.48493	0.000
3.49228	0.000
3.49960	0.000
}
}
[CHROMATOGRAM]
{
TraceNumber	8
Description	MS ES- :315 1.5000Da
TargetMass	316.0000
ProcDesc
MaxIntensity	253076.00
[TRACE]
{
0.49867	0.000
0.50598	0.000
0.51332	0.000
0.52065	0.000
0.52800	0.000
0.53533	0.000
0.54267	0.000
0.55002	0.000
0.55735	0.000
0.56468	0.347
0.57202	0.000
0.57937	0.000
0.58672	0.000
0.59403	0.347
0.60138	0.000
0.60872	0.000
0.61603	0.000
0.62338	0.231
0.63073	0.000
0.63805	0.000
0.64540	0.000
0.65273	0.000
0.66007	0.000
0.66742	0.000
0.67475	0.116
0.68208	0.231
0.68945	0.000
0.69675	0.000
0.70410	0.000
0.71143	0.000
0.71877	0.000
0.72610	0.000
0.73345	0.000
0.74078	0.000
0.74812	0.000
0.75545	0.000
0.76280	0.231
0.77015	0.000
0.77745	0.000
0.78482	0.000
0.79213	0.000
0.79947	0.000
0.80682	0.000
0.81415	0.116
0.82150	0.000
0.82882	0.000
0.83617	0.000
0.84350	0.000
0.85085	0.000
0.85818	0.116
0.86552	0.000
0.87285	0.000
0.88020	0.116
0.88755	0.000
0.89485	0.000
0.90220	0.000
0.90953	0.000
0.91688	0.000
0.92420	0.000
0.93155	0.000
0.93890	0.000
0.94622	0.000
0.95357	0.000
0.96090	0.231
0.96825	0.000
0.97557	0.000
0.98290	0.116
0.99025	0.000
0.99758	0.000
1.00493	0.000
1.01227	0.000
1.01960	0.578
1.02693	0.231
1.03427	0.116
1.04162	0.116
1.04895	0.000
1.05628	0.000
1.06362	0.116
1.07097	0.231
1.07830	0.000
1.08563	0.116
1.09297	5.318
1.10030	21.620
1.10765	44.740
1.11498	59.075
1.12232	87.630
1.12965	67.168
1.13700	75.953
1.14432	53.063
1.15168	43.006
1.15900	34.683
1.16633	19.307
1.17368	11.677
1.18102	16.070
1.18835	15.376
1.19568	10.636
1.20303	10.405
1.21037	3.469
1.21770	5.434
1.22503	4.047
1.23238	2.890
1.23972	4.625
1.24705	2.660
1.25438	3.469
1.26172	2.197
1.26907	0.116
1.27642	1.618
1.28375	1.387
1.29107	2.081
1.29842	2.082
1.30577	4.855
1.31310	1.850
1.32043	1.041
1.32777	5.434
1.33510	1.965
1.34243	2.890
1.34977	2.428
1.35712	2.774
1.36445	0.347
1.37182	0.578
1.37912	1.619
1.38647	0.232
1.39380	1.734
1.40113	1.618
1.40848	2.197
1.41583	3.352
1.42315	0.809
1.43048	1.272
1.43783	1.387
1.44517	0.463
1.45252	1.272
1.45983	0.463
1.46718	0.578
1.47452	1.041
1.48188	0.116
1.48920	0.000
1.49653	1.618
1.50387	1.156
1.51122	1.156
1.51855	1.272
1.52588	0.463
1.53323	0.578
1.54057	1.965
1.54790	0.000
1.55523	0.116
1.56255	1.041
1.56990	0.000
1.57723	0.810
1.58458	0.116
1.59192	1.272
1.59925	6.127
1.60658	24.278
1.61393	76.646
1.62127	98.843
1.62862	100.000
1.63595	68.902
1.64327	19.885
1.65062	11.560
1.65797	6.936
1.66528	10.521
1.67262	2.429
1.67997	1.388
1.68730	2.428
1.69463	0.578
1.70198	3.700
1.70932	1.503
1.71665	1.387
1.72398	2.081
1.73133	1.503
1.73867	1.272
1.74598	0.000
1.75335	0.578
1.76067	2.543
1.76800	2.312
1.77533	0.462
1.78268	0.347
1.79003	2.312
1.79737	0.809
1.80472	0.925
1.81203	1.387
1.81938	0.694
1.82672	0.347
1.83405	3.122
1.84137	0.925
1.84872	1.156
1.85607	1.156
1.86340	0.116
1.87073	0.462
1.87807	0.925
1.88542	0.347
1.89275	1.850
1.90008	0.925
1.90742	0.463
1.91477	0.925
1.92210	0.232
1.92943	0.000
1.93677	0.925
1.94410	1.965
1.95143	1.157
1.95878	0.694
1.96613	0.925
1.97345	0.694
1.98080	0.694
1.98813	3.005
1.99545	0.231
2.00280	2.543
2.01013	0.231
2.01748	1.965
2.02482	1.619
2.03215	2.890
2.03950	0.462
2.04683	1.040
2.05415	2.659
2.06150	0.347
2.06885	2.081
2.07618	0.462
2.08350	0.578
2.09087	2.427
2.09820	1.041
2.10553	2.428
2.11288	1.387
2.12020	1.156
2.12753	0.810
2.13488	1.387
2.14222	2.197
2.14957	1.041
2.15688	1.388
2.16422	2.312
2.17155	2.775
2.17892	2.891
2.18623	1.272
2.19357	2.775
2.20090	1.618
2.20825	2.775
2.21558	2.775
2.22292	2.312
2.23027	1.388
2.23760	4.278
2.24495	0.693
2.25227	0.925
2.25962	2.312
2.26695	2.312
2.27428	5.665
2.28163	1.272
2.28897	1.850
2.29630	0.000
2.30363	1.966
2.31097	1.156
2.31830	2.775
2.32565	0.232
2.33297	1.618
2.34032	1.157
2.34765	0.578
2.35500	4.971
2.36233	1.503
2.36967	1.272
2.37700	0.925
2.38437	2.197
2.39168	1.850
2.39902	0.809
2.40635	1.965
2.41372	1.156
2.42102	1.503
2.42837	1.387
2.43570	0.116
2.44303	0.693
2.45038	1.272
2.45770	2.312
2.46505	2.312
2.47238	2.312
2.47972	1.387
2.48707	1.388
2.49440	0.232
2.50173	3.469
2.50908	0.578
2.51642	0.232
2.52375	5.317
2.53108	1.387
2.53842	0.694
2.54577	1.734
2.55310	2.197
2.56045	1.850
2.56780	1.041
2.57513	0.925
2.58245	0.694
2.58978	1.618
2.59713	0.809
2.60445	1.618
2.61180	1.850
2.61915	1.619
2.62647	0.578
2.63380	3.815
2.64113	3.237
2.64848	0.578
2.65582	0.810
2.66317	0.000
2.67050	1.734
2.67783	1.965
2.68517	2.312
2.69250	1.040
2.69985	2.312
2.70717	1.734
2.71452	1.157
2.72187	1.041
2.72918	0.925
2.73653	0.925
2.74387	0.809
2.75122	1.040
2.75853	1.272
2.76590	1.272
2.77322	0.578
2.78057	0.810
2.78790	0.810
2.79523	1.388
2.80257	0.925
2.80990	0.463
2.81725	1.040
2.82457	0.462
2.83193	0.925
2.83925	0.462
2.84658	0.116
2.85393	0.925
2.86127	0.000
2.86862	1.156
2.87595	0.231
2.88330	0.000
2.89063	0.694
2.89797	1.156
2.90530	0.231
2.91263	0.231
2.91998	0.231
2.92730	0.578
2.93465	0.116
2.94198	0.000
2.94932	0.578
2.95665	0.231
2.96400	0.000
2.97133	0.116
2.97867	0.462
2.98600	0.000
2.99333	0.000
3.00068	0.000
3.00802	0.232
3.01535	0.116
3.02268	0.463
3.03003	0.925
3.03737	0.809
3.04470	0.694
3.05203	1.387
3.05937	0.578
3.06672	0.693
3.07407	1.734
3.08140	0.000
3.08872	0.462
3.09607	1.040
3.10340	0.116
3.11073	0.347
3.11807	0.000
3.12542	0.000
3.13275	0.116
3.14008	0.463
3.14743	0.000
3.15477	0.231
3.16208	0.000
3.16943	0.463
3.17677	0.000
3.18410	0.116
3.19143	0.809
3.19878	0.000
3.20613	0.694
3.21345	0.000
3.22080	0.000
3.22813	0.231
3.23547	0.000
3.24282	0.116
3.25013	0.000
3.25748	0.000
3.26480	0.000
3.27215	0.000
3.27948	0.000
3.28682	0.000
3.29418	0.000
3.30150	0.000
3.30885	0.000
3.31618	0.000
3.32352	0.232
3.33085	0.000
3.33820	0.116
3.34552	0.000
3.35287	0.000
3.36022	0.000
3.36753	0.000
3.37488	0.000
3.38220	0.000
3.38957	0.000
3.39688	0.000
3.40422	0.000
3.41157	0.000
3.41890	0.578
3.42623	0.000
3.43357	0.116
3.44090	0.578
3.44823	0.000
3.45558	0.347
3.46292	0.000
3.47028	0.000
3.47760	0.000
3.48493	0.000
3.49228	0.000
3.49960	0.000
}
}
}
[FUNCTION]
{
Function	3
IonMode
Type	DAD 
Description	(210:600) 
[CHROMATOGRAM]
{
TraceNumber	9
Description	DAD: 220
ProcDesc
MaxIntensity	2220032.00
[TRACE]
{
0.50000	0.331
0.50167	0.341
0.50333	0.380
0.50500	0.401
0.50667	0.453
0.50833	0.536
0.51000	0.600
0.51167	0.615
0.51333	0.637
0.51500	0.658
0.51667	0.596
0.51833	0.538
0.52000	0.518
0.52167	0.516
0.52333	0.517
0.52500	0.507
0.52667	0.525
0.52833	0.520
0.53000	0.466
0.53167	0.391
0.53333	0.399
0.53500	0.391
0.53667	0.394
0.53833	0.434
0.54000	0.487
0.54167	0.473
0.54333	0.441
0.54500	0.401
0.54667	0.405
0.54833	0.373
0.55000	0.377
0.55167	0.391
0.55333	0.398
0.55500	0.381
0.55667	0.425
0.55833	0.430
0.56000	0.450
0.56167	0.488
0.56333	0.438
0.56500	0.352
0.56667	0.305
0.56833	0.247
0.57000	0.205
0.57167	0.216
0.57333	0.244
0.57500	0.222
0.57667	0.219
0.57833	0.142
0.58000	0.134
0.58167	0.105
0.58333	0.153
0.58500	0.204
0.58667	0.354
0.58833	0.395
0.59000	0.478
0.59167	0.510
0.59333	0.520
0.59500	0.444
0.59667	0.407
0.59833	0.345
0.60000	0.280
0.60167	0.211
0.60333	0.204
0.60500	0.263
0.60667	0.298
0.60833	0.331
0.61000	0.402
0.61167	0.444
0.61333	0.393
0.61500	0.377
0.61667	0.377
0.61833	0.338
0.62000	0.298
0.62167	0.293
0.62333	0.263
0.62500	0.248
0.62667	0.239
0.62833	0.231
0.63000	0.242
0.63167	0.280
0.63333	0.311
0.63500	0.338
0.63667	0.381
0.63833	0.378
0.64000	0.335
0.64167	0.297
0.64333	0.249
0.64500	0.177
0.64667	0.155
0.64833	0.182
0.65000	0.165
0.65167	0.178
0.65333	0.203
0.65500	0.245
0.65667	0.248
0.65833	0.266
0.66000	0.278
0.66167	0.308
0.66333	0.266
0.66500	0.215
0.66667	0.181
0.66833	0.144
0.67000	0.087
0.67167	0.049
0.67333	0.073
0.67500	0.097
0.67667	0.134
0.67833	0.197
0.68000	0.288
0.68167	0.339
0.68333	0.362
0.68500	0.341
0.68667	0.286
0.68833	0.233
0.69000	0.169
0.69167	0.202
0.69333	0.241
0.69500	0.300
0.69667	0.334
0.69833	0.375
0.70000	0.278
0.70167	0.236
0.70333	0.181
0.70500	0.151
0.70667	0.133
0.70833	0.230
0.71000	0.276
0.71167	0.339
0.71333	0.370
0.71500	0.380
0.71667	0.321
0.71833	0.259
0.72000	0.185
0.72167	0.169
0.72333	0.170
0.72500	0.205
0.72667	0.273
0.72833	0.338
0.73000	0.346
0.73167	0.329
0.73333	0.297
0.73500	0.258
0.73667	0.205
0.73833	0.172
0.74000	0.149
0.74167	0.169
0.74333	0.162
0.74500	0.187
0.74667	0.234
0.74833	0.333
0.75000	0.359
0.75167	0.408
0.75333	0.471
0.75500	0.530
0.75667	0.466
0.75833	0.431
0.76000	0.409
0.76167	0.350
0.76333	0.248
0.76500	0.278
0.76667	0.314
0.76833	0.318
0.77000	0.335
0.77167	0.423
0.77333	0.452
0.77500	0.484
0.77667	0.539
0.77833	0.559
0.78000	0.522
0.78167	0.527
0.78333	0.511
0.78500	0.500
0.78667	0.551
0.78833	0.585
0.79000	0.546
0.79167	0.553
0.79333	0.550
0.79500	0.527
0.79667	0.564
0.79833	0.684
0.80000	0.778
0.80167	0.848
0.80333	0.911
0.80500	0.945
0.80667	0.917
0.80833	0.911
0.81000	0.929
0.81167	0.948
0.81333	0.994
0.81500	1.050
0.81667	1.069
0.81833	1.110
0.82000	1.159
0.82167	1.147
0.82333	1.133
0.82500	1.129
0.82667	1.120
0.82833	1.097
0.83000	1.159
0.83167	1.254
0.83333	1.366
0.83500	1.458
0.83667	1.548
0.83833	1.593
0.84000	1.618
0.84167	1.652
0.84333	1.695
0.84500	1.769
0.84667	1.805
0.84833	1.873
0.85000	1.908
0.85167	1.920
0.85333	1.898
0.85500	1.952
0.85667	1.970
0.85833	2.018
0.86000	2.105
0.86167	2.249
0.86333	2.334
0.86500	2.370
0.86667	2.378
0.86833	2.385
0.87000	2.300
0.87167	2.286
0.87333	2.339
0.87500	2.414
0.87667	2.441
0.87833	2.546
0.88000	2.575
0.88167	2.606
0.88333	2.638
0.88500	2.762
0.88667	2.814
0.88833	2.910
0.89000	2.975
0.89167	3.046
0.89333	3.013
0.89500	3.095
0.89667	3.140
0.89833	3.206
0.90000	3.224
0.90167	3.303
0.90333	3.257
0.90500	3.233
0.90667	3.213
0.90833	3.236
0.91000	3.235
0.91167	3.288
0.91333	3.330
0.91500	3.386
0.91667	3.449
0.91833	3.517
0.92000	3.615
0.92167	3.763
0.92333	3.901
0.92500	4.046
0.92667	4.225
0.92833	4.383
0.93000	4.466
0.93167	4.496
0.93333	4.486
0.93500	4.425
0.93667	4.383
0.93833	4.400
0.94000	4.448
0.94167	4.478
0.94333	4.548
0.94500	4.514
0.94667	4.451
0.94833	4.401
0.95000	4.409
0.95167	4.398
0.95333	4.513
0.95500	4.646
0.95667	4.749
0.95833	4.786
0.96000	4.827
0.96167	4.793
0.96333	4.740
0.96500	4.720
0.96667	4.776
0.96833	4.806
0.97000	4.860
0.97167	4.905
0.97333	4.946
0.97500	4.923
0.97667	4.963
0.97833	5.026
0.98000	5.093
0.98167	5.152
0.98333	5.251
0.98500	5.287
0.98667	5.236
0.98833	5.208
0.99000	5.212
0.99167	5.210
0.99333	5.238
0.99500	5.349
0.99667	5.461
0.99833	5.537
1.00000	5.588
1.00167	5.618
1.00333	5.592
1.00500	5.537
1.00667	5.462
1.00833	5.424
1.01000	5.366
1.01167	5.341
1.01333	5.318
1.01500	5.329
1.01667	5.316
1.01833	5.374
1.02000	5.454
1.02167	5.555
1.02333	5.659
1.02500	5.766
1.02667	5.829
1.02833	5.861
1.03000	5.889
1.03167	5.877
1.03333	5.876
1.03500	5.862
1.03667	5.897
1.03833	5.916
1.04000	5.957
1.04167	5.991
1.04333	6.061
1.04500	6.070
1.04667	6.102
1.04833	6.176
1.05000	6.232
1.05167	6.239
1.05333	6.255
1.05500	6.249
1.05667	6.172
1.05833	6.130
1.06000	6.228
1.06167	6.668
1.06333	7.921
1.06500	10.816
1.06667	17.828
1.06833	28.474
1.07000	40.991
1.07167	55.206
1.07333	70.696
1.07500	81.475
1.07667	89.169
1.07833	94.880
1.08000	98.316
1.08167	98.858
1.08333	100.000
1.08500	98.928
1.08667	98.028
1.08833	97.867
1.09000	96.368
1.09167	94.131
1.09333	93.860
1.09500	92.954
1.09667	91.083
1.09833	90.083
1.10000	88.933
1.10167	86.151
1.10333	82.585
1.10500	76.292
1.10667	69.110
1.10833	61.837
1.11000	54.595
1.11167	47.224
1.11333	41.467
1.11500	36.252
1.11667	31.259
1.11833	26.877
1.12000	23.213
1.12167	20.237
1.12333	17.805
1.12500	15.856
1.12667	14.261
1.12833	12.966
1.13000	12.001
1.13167	11.251
1.13333	10.673
1.13500	10.334
1.13667	10.055
1.13833	9.874
1.14000	9.704
1.14167	9.528
1.14333	9.328
1.14500	9.260
1.14667	9.260
1.14833	9.592
1.15000	10.244
1.15167	11.157
1.15333	12.238
1.15500	13.436
1.15667	14.419
1.15833	15.157
1.16000	15.552
1.16167	15.572
1.16333	15.242
1.16500	14.608
1.16667	13.842
1.16833	13.047
1.17000	12.262
1.17167	11.517
1.17333	10.969
1.17500	10.435
1.17667	10.024
1.17833	9.655
1.18000	9.385
1.18167	9.090
1.18333	8.912
1.18500	8.658
1.18667	8.511
1.18833	8.401
1.19000	8.354
1.19167	8.286
1.19333	8.272
1.19500	8.238
1.19667	8.151
1.19833	8.119
1.20000	8.103
1.20167	8.143
1.20333	8.221
1.20500	8.344
1.20667	8.434
1.20833	8.525
1.21000	8.616
1.21167	8.726
1.21333	8.819
1.21500	8.876
1.21667	8.932
1.21833	8.943
1.22000	8.925
1.22167	8.934
1.22333	9.005
1.22500	9.080
1.22667	9.136
1.22833	9.117
1.23000	9.093
1.23167	9.027
1.23333	8.969
1.23500	9.038
1.23667	9.188
1.23833	9.312
1.24000	9.482
1.24167	9.609
1.24333	9.601
1.24500	9.589
1.24667	9.562
1.24833	9.550
1.25000	9.571
1.25167	9.644
1.25333	9.678
1.25500	9.763
1.25667	9.707
1.25833	9.649
1.26000	9.613
1.26167	9.601
1.26333	9.625
1.26500	9.810
1.26667	9.982
1.26833	10.117
1.27000	10.247
1.27167	10.313
1.27333	10.270
1.27500	10.238
1.27667	10.256
1.27833	10.273
1.28000	10.251
1.28167	10.294
1.28333	10.393
1.28500	10.403
1.28667	10.381
1.28833	10.399
1.29000	10.385
1.29167	10.267
1.29333	10.211
1.29500	10.216
1.29667	10.232
1.29833	10.203
1.30000	10.220
1.30167	10.266
1.30333	10.267
1.30500	10.269
1.30667	10.349
1.30833	10.448
1.31000	10.470
1.31167	10.517
1.31333	10.543
1.31500	10.597
1.31667	10.583
1.31833	10.639
1.32000	10.691
1.32167	10.785
1.32333	10.818
1.32500	10.922
1.32667	10.987
1.32833	11.034
1.33000	11.072
1.33167	11.061
1.33333	11.007
1.33500	10.875
1.33667	10.748
1.33833	10.522
1.34000	10.359
1.34167	10.230
1.34333	10.198
1.34500	10.179
1.34667	10.266
1.34833	10.384
1.35000	10.497
1.35167	10.531
1.35333	10.517
1.35500	10.478
1.35667	10.349
1.35833	10.236
1.36000	10.189
1.36167	10.215
1.36333	10.231
1.36500	10.285
1.36667	10.315
1.36833	10.387
1.37000	10.398
1.37167	10.476
1.37333	10.566
1.37500	10.667
1.37667	10.713
1.37833	10.860
1.38000	10.910
1.38167	10.975
1.38333	11.039
1.38500	11.130
1.38667	11.108
1.38833	11.133
1.39000	11.096
1.39167	11.063
1.39333	10.950
1.39500	10.896
1.39667	10.863
1.39833	10.914
1.40000	10.888
1.40167	10.926
1.40333	10.918
1.40500	10.862
1.40667	10.796
1.40833	10.845
1.41000	10.932
1.41167	11.113
1.41333	11.372
1.41500	11.511
1.41667	11.614
1.41833	11.660
1.42000	11.604
1.42167	11.441
1.42333	11.420
1.42500	11.335
1.42667	11.208
1.42833	11.166
1.43000	11.153
1.43167	11.114
1.43333	11.134
1.43500	11.257
1.43667	11.270
1.43833	11.325
1.44000	11.352
1.44167	11.356
1.44333	11.326
1.44500	11.368
1.44667	11.383
1.44833	11.350
1.45000	11.428
1.45167	11.488
1.45333	11.568
1.45500	11.618
1.45667	11.745
1.45833	11.670
1.46000	11.632
1.46167	11.505
1.46333	11.410
1.46500	11.327
1.46667	11.365
1.46833	11.302
1.47000	11.345
1.47167	11.415
1.47333	11.351
1.47500	11.296
1.47667	11.284
1.47833	11.230
1.48000	11.106
1.48167	11.123
1.48333	11.103
1.48500	11.115
1.48667	11.128
1.48833	11.261
1.49000	11.299
1.49167	11.397
1.49333	11.491
1.49500	11.605
1.49667	11.633
1.49833	11.706
1.50000	11.732
1.50167	11.766
1.50333	11.761
1.50500	11.770
1.50667	11.777
1.50833	11.722
1.51000	11.634
1.51167	11.531
1.51333	11.456
1.51500	11.379
1.51667	11.367
1.51833	11.397
1.52000	11.480
1.52167	11.503
1.52333	11.544
1.52500	11.572
1.52667	11.514
1.52833	11.454
1.53000	11.440
1.53167	11.368
1.53333	11.348
1.53500	11.448
1.53667	11.469
1.53833	11.573
1.54000	11.666
1.54167	11.663
1.54333	11.564
1.54500	11.569
1.54667	11.384
1.54833	11.310
1.55000	11.370
1.55167	11.464
1.55333	11.504
1.55500	11.673
1.55667	11.789
1.55833	11.770
1.56000	11.806
1.56167	11.850
1.56333	11.887
1.56500	11.874
1.56667	11.985
1.56833	12.051
1.57000	12.090
1.57167	12.196
1.57333	12.623
1.57500	13.208
1.57667	14.190
1.57833	15.590
1.58000	17.400
1.58167	19.215
1.58333	21.163
1.58500	22.859
1.58667	24.302
1.58833	24.994
1.59000	25.317
1.59167	24.957
1.59333	24.106
1.59500	22.848
1.59667	21.550
1.59833	19.985
1.60000	18.510
1.60167	17.195
1.60333	15.902
1.60500	14.805
1.60667	14.003
1.60833	13.299
1.61000	12.767
1.61167	12.480
1.61333	12.285
1.61500	12.109
1.61667	12.114
1.61833	12.096
1.62000	12.052
1.62167	12.003
1.62333	11.998
1.62500	11.939
1.62667	11.922
1.62833	11.972
1.63000	11.983
1.63167	11.953
1.63333	11.917
1.63500	11.833
1.63667	11.747
1.63833	11.708
1.64000	11.784
1.64167	11.872
1.64333	11.993
1.64500	12.012
1.64667	12.067
1.64833	11.985
1.65000	11.923
1.65167	11.867
1.65333	11.880
1.65500	11.876
1.65667	11.894
1.65833	11.914
1.66000	11.945
1.66167	11.950
1.66333	11.918
1.66500	11.926
1.66667	11.916
1.66833	11.851
1.67000	11.827
1.67167	11.853
1.67333	11.872
1.67500	11.847
1.67667	11.892
1.67833	11.894
1.68000	11.771
1.68167	11.658
1.68333	11.673
1.68500	11.687
1.68667	11.753
1.68833	11.965
1.69000	12.135
1.69167	12.172
1.69333	12.193
1.69500	12.174
1.69667	12.121
1.69833	12.018
1.70000	12.023
1.70167	11.985
1.70333	11.976
1.70500	11.985
1.70667	12.104
1.70833	12.208
1.71000	12.392
1.71167	12.506
1.71333	12.483
1.71500	12.488
1.71667	12.377
1.71833	12.089
1.72000	11.895
1.72167	11.828
1.72333	11.652
1.72500	11.616
1.72667	11.812
1.72833	11.944
1.73000	12.061
1.73167	12.243
1.73333	12.332
1.73500	12.254
1.73667	12.195
1.73833	12.100
1.74000	12.049
1.74167	12.003
1.74333	12.076
1.74500	12.100
1.74667	12.154
1.74833	12.098
1.75000	12.048
1.75167	11.913
1.75333	11.869
1.75500	11.843
1.75667	11.858
1.75833	11.923
1.76000	12.029
1.76167	12.089
1.76333	12.116
1.76500	12.145
1.76667	12.133
1.76833	12.117
1.77000	12.101
1.77167	12.142
1.77333	12.192
1.77500	12.212
1.77667	12.235
1.77833	12.279
1.78000	12.263
1.78167	12.290
1.78333	12.401
1.78500	12.514
1.78667	12.633
1.78833	12.801
1.79000	12.858
1.79167	12.898
1.79333	12.908
1.79500	12.913
1.79667	12.838
1.79833	12.875
1.80000	12.839
1.80167	12.855
1.80333	12.854
1.80500	12.912
1.80667	12.888
1.80833	12.918
1.81000	12.853
1.81167	12.769
1.81333	12.653
1.81500	12.557
1.81667	12.473
1.81833	12.491
1.82000	12.555
1.82167	12.637
1.82333	12.755
1.82500	12.870
1.82667	12.940
1.82833	13.006
1.83000	13.050
1.83167	13.033
1.83333	12.958
1.83500	12.876
1.83667	12.727
1.83833	12.625
1.84000	12.586
1.84167	12.702
1.84333	12.807
1.84500	12.976
1.84667	13.136
1.84833	13.273
1.85000	13.258
1.85167	13.226
1.85333	13.193
1.85500	13.100
1.85667	12.964
1.85833	12.831
1.86000	12.782
1.86167	12.690
1.86333	12.687
1.86500	12.719
1.86667	12.765
1.86833	12.716
1.87000	12.787
1.87167	12.810
1.87333	12.854
1.87500	12.899
1.87666	13.014
1.87833	12.944
1.88000	12.899
1.88166	12.850
1.88333	12.800
1.88500	12.760
1.88666	12.896
1.88833	13.074
1.89000	13.163
1.89166	13.396
1.89333	13.569
1.89500	13.665
1.89666	13.640
1.89833	13.744
1.90000	13.646
1.90166	13.558
1.90333	13.390
1.90500	13.313
1.90666	13.152
1.90833	13.103
1.91000	13.089
1.91166	13.172
1.91333	13.231
1.91500	13.323
1.91666	13.349
1.91833	13.316
1.92000	13.266
1.92166	13.185
1.92333	13.131
1.92500	13.072
1.92666	13.117
1.92833	13.159
1.93000	13.165
1.93166	13.140
1.93333	13.190
1.93500	13.175
1.93666	13.133
1.93833	13.196
1.94000	13.218
1.94166	13.206
1.94333	13.159
1.94500	13.116
1.94666	13.003
1.94833	12.945
1.95000	12.947
1.95166	13.060
1.95333	13.183
1.95500	13.373
1.95666	13.568
1.95833	13.700
1.96000	13.693
1.96166	13.742
1.96333	13.706
1.96500	13.687
1.96666	13.640
1.96833	13.670
1.97000	13.644
1.97166	13.647
1.97333	13.620
1.97500	13.624
1.97666	13.619
1.97833	13.660
1.98000	13.770
1.98166	13.844
1.98333	13.909
1.98500	13.991
1.98666	14.016
1.98833	13.965
1.99000	13.929
1.99166	13.908
1.99333	13.903
1.99500	13.874
1.99666	13.807
1.99833	13.771
2.00000	13.737
2.00166	13.558
2.00333	13.494
2.00500	13.518
2.00667	13.533
2.00833	13.539
2.01000	13.702
2.01167	13.789
2.01333	13.838
2.01500	13.854
2.01667	13.897
2.01833	13.859
2.02000	13.807
2.02167	13.771
2.02333	13.730
2.02500	13.639
2.02667	13.544
2.02833	13.482
2.03000	13.436
2.03167	13.509
2.03333	13.637
2.03500	13.840
2.03667	14.035
2.03833	14.223
2.04000	14.225
2.04167	14.204
2.04333	14.137
2.04500	14.060
2.04667	13.954
2.04833	14.011
2.05000	14.015
2.05167	13.999
2.05334	13.993
2.05500	13.941
2.05667	13.872
2.05834	13.861
2.06000	13.883
2.06167	13.893
2.06334	13.959
2.06500	13.947
2.06667	13.896
2.06834	13.828
2.07000	13.820
2.07167	13.845
2.07334	13.831
2.07500	13.849
2.07667	13.888
2.07834	13.882
2.08000	13.863
2.08167	13.900
2.08334	13.927
2.08500	13.961
2.08667	13.934
2.08834	13.889
2.09000	13.888
2.09167	13.947
2.09334	13.929
2.09500	14.007
2.09667	14.102
2.09834	14.157
2.10001	14.145
2.10167	14.194
2.10334	14.169
2.10501	14.104
2.10667	13.989
2.10834	13.873
2.11001	13.816
2.11167	13.900
2.11334	14.022
2.11501	14.227
2.11667	14.434
2.11834	14.518
2.12001	14.401
2.12167	14.263
2.12334	14.118
2.12501	13.958
2.12667	13.865
2.12834	13.910
2.13001	13.980
2.13167	14.003
2.13334	14.099
2.13501	14.191
2.13667	14.250
2.13834	14.249
2.14001	14.321
2.14167	14.352
2.14334	14.313
2.14501	14.302
2.14668	14.347
2.14834	14.290
2.15001	14.253
2.15168	14.280
2.15334	14.194
2.15501	14.024
2.15668	13.953
2.15834	13.849
2.16001	13.754
2.16168	13.765
2.16334	13.951
2.16501	14.099
2.16668	14.228
2.16834	14.372
2.17001	14.471
2.17168	14.433
2.17334	14.346
2.17501	14.278
2.17668	14.170
2.17834	14.072
2.18001	14.047
2.18168	14.113
2.18334	14.202
2.18501	14.359
2.18668	14.530
2.18834	14.682
2.19001	14.746
2.19168	14.860
2.19335	14.825
2.19501	14.819
2.19668	14.728
2.19835	14.692
2.20001	14.559
2.20168	14.533
2.20335	14.464
2.20501	14.436
2.20668	14.384
2.20835	14.378
2.21001	14.426
2.21168	14.438
2.21335	14.419
2.21501	14.412
2.21668	14.397
2.21835	14.245
2.22001	14.142
2.22168	14.115
2.22335	14.055
2.22501	13.982
2.22668	13.983
2.22835	14.031
2.23001	14.028
2.23168	14.069
2.23335	14.079
2.23501	14.083
2.23668	13.958
2.23835	13.912
2.24002	13.855
2.24168	13.869
2.24335	13.861
2.24502	13.972
2.24668	13.993
2.24835	14.001
2.25002	13.967
2.25168	13.908
2.25335	13.773
2.25502	13.734
2.25668	13.717
2.25835	13.771
2.26002	13.908
2.26168	14.128
2.26335	14.303
2.26502	14.442
2.26668	14.541
2.26835	14.568
2.27002	14.504
2.27168	14.401
2.27335	14.373
2.27502	14.265
2.27668	14.261
2.27835	14.289
2.28002	14.323
2.28168	14.278
2.28335	14.266
2.28502	14.233
2.28668	14.174
2.28835	14.137
2.29002	14.145
2.29169	14.251
2.29335	14.300
2.29502	14.457
2.29669	14.598
2.29835	14.716
2.30002	14.700
2.30169	14.634
2.30335	14.490
2.30502	14.406
2.30669	14.314
2.30835	14.351
2.31002	14.555
2.31169	14.747
2.31335	14.798
2.31502	14.937
2.31669	14.945
2.31835	14.749
2.32002	14.485
2.32169	14.390
2.32335	14.124
2.32502	13.983
2.32669	13.988
2.32835	14.124
2.33002	14.156
2.33169	14.333
2.33335	14.403
2.33502	14.421
2.33669	14.385
2.33836	14.473
2.34002	14.504
2.34169	14.649
2.34336	14.798
2.34502	15.002
2.34669	15.008
2.34836	15.035
2.35002	14.945
2.35169	14.823
2.35336	14.645
2.35502	14.615
2.35669	14.589
2.35836	14.602
2.36002	14.636
2.36169	14.631
2.36336	14.561
2.36502	14.479
2.36669	14.406
2.36836	14.388
2.37002	14.390
2.37169	14.420
2.37336	14.447
2.37502	14.434
2.37669	14.401
2.37836	14.455
2.38002	14.486
2.38169	14.496
2.38336	14.559
2.38503	14.549
2.38669	14.494
2.38836	14.465
2.39003	14.415
2.39169	14.395
2.39336	14.419
2.39503	14.370
2.39669	14.278
2.39836	14.297
2.40003	14.287
2.40169	14.295
2.40336	14.396
2.40503	14.571
2.40669	14.615
2.40836	14.628
2.41003	14.602
2.41169	14.519
2.41336	14.362
2.41503	14.313
2.41669	14.297
2.41836	14.373
2.42003	14.496
2.42169	14.630
2.42336	14.744
2.42503	14.824
2.42669	14.790
2.42836	14.744
2.43003	14.736
2.43170	14.697
2.43336	14.677
2.43503	14.683
2.43670	14.696
2.43836	14.685
2.44003	14.675
2.44170	14.687
2.44336	14.726
2.44503	14.691
2.44670	14.686
2.44836	14.628
2.45003	14.578
2.45170	14.505
2.45336	14.523
2.45503	14.457
2.45670	14.465
2.45836	14.398
2.46003	14.329
2.46170	14.214
2.46336	14.246
2.46503	14.226
2.46670	14.310
2.46836	14.403
2.47003	14.528
2.47170	14.517
2.47336	14.535
2.47503	14.475
2.47670	14.486
2.47837	14.445
2.48003	14.460
2.48170	14.517
2.48337	14.603
2.48503	14.633
2.48670	14.677
2.48837	14.713
2.49003	14.728
2.49170	14.735
2.49337	14.724
2.49503	14.749
2.49670	14.846
2.49837	14.935
2.50003	15.045
2.50170	15.130
2.50337	15.168
2.50503	15.151
2.50670	15.089
2.50837	14.999
2.51003	14.961
2.51170	14.973
2.51337	14.961
2.51503	14.997
2.51670	15.017
2.51837	14.988
2.52003	14.991
2.52170	14.940
2.52337	14.848
2.52504	14.793
2.52670	14.782
2.52837	14.605
2.53004	14.527
2.53170	14.486
2.53337	14.432
2.53504	14.318
2.53670	14.372
2.53837	14.356
2.54004	14.372
2.54170	14.385
2.54337	14.571
2.54504	14.672
2.54670	14.837
2.54837	14.917
2.55004	14.976
2.55170	14.881
2.55337	14.863
2.55504	14.753
2.55670	14.759
2.55837	14.794
2.56004	14.821
2.56170	14.770
2.56337	14.808
2.56504	14.755
2.56670	14.722
2.56837	14.743
2.57004	14.782
2.57171	14.806
2.57337	14.784
2.57504	14.694
2.57671	14.635
2.57837	14.571
2.58004	14.470
2.58171	14.457
2.58337	14.504
2.58504	14.440
2.58671	14.393
2.58837	14.483
2.59004	14.578
2.59171	14.655
2.59337	14.807
2.59504	14.964
2.59671	14.911
2.59837	14.850
2.60004	14.862
2.60171	14.800
2.60337	14.733
2.60504	14.813
2.60671	14.838
2.60837	14.775
2.61004	14.816
2.61171	14.853
2.61337	14.847
2.61504	14.878
2.61671	14.908
2.61838	14.891
2.62004	14.919
2.62171	14.948
2.62338	14.942
2.62504	14.934
2.62671	14.945
2.62838	14.854
2.63004	14.767
2.63171	14.760
2.63338	14.790
2.63504	14.950
2.63671	15.092
2.63838	15.265
2.64004	15.348
2.64171	15.391
2.64338	15.149
2.64504	15.055
2.64671	14.823
2.64838	14.677
2.65004	14.541
2.65171	14.551
2.65338	14.530
2.65504	14.660
2.65671	14.716
2.65838	14.772
2.66004	14.883
2.66171	14.913
2.66338	14.864
2.66505	14.937
2.66671	15.028
2.66838	15.074
2.67005	15.101
2.67171	15.165
2.67338	15.076
2.67505	15.012
2.67671	14.875
2.67838	14.819
2.68005	14.731
2.68171	14.741
2.68338	14.737
2.68505	14.823
2.68671	14.913
2.68838	15.074
2.69005	15.156
2.69171	15.157
2.69338	15.098
2.69505	15.026
2.69671	14.870
2.69838	14.731
2.70005	14.692
2.70171	14.692
2.70338	14.670
2.70505	14.723
2.70671	14.815
2.70838	14.862
2.71005	14.881
2.71171	14.892
2.71338	14.886
2.71505	14.918
2.71672	14.958
2.71838	15.030
2.72005	15.176
2.72172	15.285
2.72338	15.322
2.72505	15.355
2.72672	15.330
2.72838	15.234
2.73005	15.138
2.73172	15.051
2.73338	14.924
2.73505	14.930
2.73672	14.954
2.73838	14.976
2.74005	14.999
2.74172	15.138
2.74338	15.213
2.74505	15.276
2.74672	15.395
2.74838	15.567
2.75005	15.677
2.75172	15.693
2.75338	15.683
2.75505	15.671
2.75672	15.636
2.75838	15.589
2.76005	15.621
2.76172	15.753
2.76339	15.825
2.76505	15.903
2.76672	16.012
2.76839	16.104
2.77005	16.033
2.77172	16.006
2.77339	15.936
2.77505	15.830
2.77672	15.741
2.77839	15.875
2.78005	16.056
2.78172	16.210
2.78339	16.432
2.78505	16.694
2.78672	16.769
2.78839	16.666
2.79005	16.703
2.79172	16.640
2.79339	16.581
2.79505	16.690
2.79672	16.952
2.79839	17.086
2.80005	17.255
2.80172	17.251
2.80339	17.162
2.80505	17.062
2.80672	16.955
2.80839	16.894
2.81006	16.980
2.81172	16.922
2.81339	16.784
2.81506	16.735
2.81672	16.488
2.81839	16.266
2.82006	16.174
2.82172	16.194
2.82339	16.132
2.82506	16.273
2.82672	16.308
2.82839	16.377
2.83006	16.373
2.83172	16.369
2.83339	16.320
2.83506	16.320
2.83672	16.196
2.83839	16.061
2.84006	15.964
2.84172	15.835
2.84339	15.672
2.84506	15.617
2.84672	15.520
2.84839	15.390
2.85006	15.303
2.85172	15.276
2.85339	15.144
2.85506	15.088
2.85673	15.010
2.85839	14.922
2.86006	14.723
2.86173	14.576
2.86339	14.356
2.86506	14.201
2.86673	14.013
2.86839	13.895
2.87006	13.729
2.87173	13.564
2.87339	13.402
2.87506	13.146
2.87673	12.904
2.87839	12.726
2.88006	12.583
2.88173	12.331
2.88339	12.232
2.88506	12.102
2.88673	11.954
2.88839	11.816
2.89006	11.785
2.89173	11.675
2.89339	11.596
2.89506	11.505
2.89673	11.430
2.89839	11.243
2.90006	11.026
2.90173	10.762
2.90340	10.495
2.90506	10.184
2.90673	9.968
2.90840	9.807
2.91006	9.652
2.91173	9.476
2.91340	9.308
2.91506	9.089
2.91673	8.881
2.91840	8.705
2.92006	8.572
2.92173	8.478
2.92340	8.405
2.92506	8.384
2.92673	8.345
2.92840	8.291
2.93006	8.206
2.93173	8.145
2.93340	7.970
2.93506	7.833
2.93673	7.698
2.93840	7.567
2.94006	7.393
2.94173	7.291
2.94340	7.176
2.94506	7.057
2.94673	6.930
2.94840	6.863
2.95007	6.798
2.95173	6.682
2.95340	6.613
2.95507	6.547
2.95673	6.473
2.95840	6.342
2.96007	6.245
2.96173	6.112
2.96340	5.993
2.96507	5.820
2.96673	5.738
2.96840	5.647
2.97007	5.595
2.97173	5.541
2.97340	5.534
2.97507	5.458
2.97673	5.434
2.97840	5.367
2.98007	5.290
2.98173	5.203
2.98340	5.131
2.98507	5.035
2.98673	4.941
2.98840	4.907
2.99007	4.837
2.99173	4.765
2.99340	4.678
2.99507	4.609
2.99674	4.433
2.99840	4.341
3.00007	4.273
3.00174	4.198
3.00340	4.085
3.00507	4.084
3.00674	4.023
3.00840	3.962
3.01007	3.935
3.01174	3.953
3.01340	3.907
3.01507	3.877
3.01674	3.808
3.01840	3.742
3.02007	3.682
3.02174	3.628
3.02340	3.590
3.02507	3.594
3.02674	3.556
3.02840	3.524
3.03007	3.493
3.03174	3.479
3.03340	3.442
3.03507	3.404
3.03674	3.320
3.03840	3.270
3.04007	3.150
3.04174	3.081
3.04341	3.049
3.04507	3.066
3.04674	3.050
3.04841	3.075
3.05007	3.059
3.05174	3.057
3.05341	3.001
3.05507	2.949
3.05674	2.905
3.05841	2.859
3.06007	2.734
3.06174	2.693
3.06341	2.626
3.06507	2.593
3.06674	2.545
3.06841	2.574
3.07007	2.516
3.07174	2.529
3.07341	2.432
3.07507	2.367
3.07674	2.274
3.07841	2.231
3.08007	2.122
3.08174	2.128
3.08341	2.113
3.08507	2.139
3.08674	2.130
3.08841	2.167
3.09008	2.146
3.09174	2.171
3.09341	2.120
3.09508	2.074
3.09674	1.991
3.09841	1.933
3.10008	1.856
3.10174	1.832
3.10341	1.842
3.10508	1.853
3.10674	1.860
3.10841	1.807
3.11008	1.742
3.11174	1.655
3.11341	1.611
3.11508	1.555
3.11674	1.550
3.11841	1.529
3.12008	1.518
3.12174	1.456
3.12341	1.391
3.12508	1.315
3.12674	1.245
3.12841	1.198
3.13008	1.186
3.13174	1.199
3.13341	1.207
3.13508	1.243
3.13674	1.205
3.13841	1.178
3.14008	1.149
3.14175	1.146
3.14341	1.121
3.14508	1.138
3.14675	1.131
3.14841	1.099
3.15008	1.077
3.15175	1.047
3.15341	1.062
3.15508	1.067
3.15675	1.096
3.15841	1.064
3.16008	1.057
3.16175	1.001
3.16341	0.968
3.16508	0.919
3.16675	0.902
3.16841	0.847
3.17008	0.793
3.17175	0.745
3.17341	0.733
3.17508	0.728
3.17675	0.765
3.17841	0.786
3.18008	0.765
3.18175	0.694
3.18341	0.624
3.18508	0.536
3.18675	0.491
3.18842	0.497
3.19008	0.510
3.19175	0.550
3.19342	0.589
3.19508	0.619
3.19675	0.631
3.19842	0.662
3.20008	0.636
3.20175	0.626
3.20342	0.579
3.20508	0.504
3.20675	0.460
3.20842	0.429
3.21008	0.377
3.21175	0.364
3.21342	0.381
3.21508	0.329
3.21675	0.306
3.21842	0.269
3.22008	0.237
3.22175	0.201
3.22342	0.225
3.22508	0.245
3.22675	0.278
3.22842	0.293
3.23008	0.298
3.23175	0.271
3.23342	0.215
3.23509	0.162
3.23675	0.094
3.23842	0.051
3.24009	-0.002
3.24175	-0.024
3.24342	-0.025
3.24509	-0.008
3.24675	0.003
3.24842	0.022
3.25009	0.043
3.25175	0.040
3.25342	0.042
3.25509	0.021
3.25675	0.008
3.25842	0.000
3.26009	-0.015
3.26175	-0.045
3.26342	-0.050
3.26509	-0.044
3.26675	-0.101
3.26842	-0.122
3.27009	-0.141
3.27175	-0.148
3.27342	-0.177
3.27509	-0.126
3.27675	-0.106
3.27842	-0.080
3.28009	-0.100
3.28176	-0.093
3.28342	-0.106
3.28509	-0.111
3.28676	-0.130
3.28842	-0.085
3.29009	-0.103
3.29176	-0.148
3.29342	-0.208
3.29509	-0.250
3.29676	-0.334
3.29842	-0.337
3.30009	-0.339
3.30176	-0.281
3.30342	-0.212
3.30509	-0.159
3.30676	-0.147
3.30842	-0.116
3.31009	-0.137
3.31176	-0.190
3.31342	-0.227
3.31509	-0.242
3.31676	-0.253
3.31842	-0.263
3.32009	-0.253
3.32176	-0.208
3.32342	-0.209
3.32509	-0.237
3.32676	-0.246
3.32843	-0.274
3.33009	-0.335
3.33176	-0.337
3.33343	-0.295
3.33509	-0.252
3.33676	-0.191
3.33843	-0.124
3.34009	-0.104
3.34176	-0.118
3.34343	-0.150
3.34509	-0.171
3.34676	-0.199
3.34843	-0.183
3.35009	-0.151
3.35176	-0.106
3.35343	-0.082
3.35509	-0.032
3.35676	-0.022
3.35843	-0.012
3.36009	0.011
3.36176	0.011
3.36343	-0.025
3.36509	-0.051
3.36676	-0.065
3.36843	-0.117
3.37009	-0.122
3.37176	-0.095
3.37343	-0.082
3.37510	-0.099
3.37676	-0.088
3.37843	-0.116
3.38010	-0.168
3.38176	-0.188
3.38343	-0.228
3.38510	-0.294
3.38676	-0.304
3.38843	-0.311
3.39010	-0.335
3.39176	-0.313
3.39343	-0.278
3.39510	-0.269
3.39676	-0.251
3.39843	-0.228
3.40010	-0.244
3.40176	-0.220
3.40343	-0.253
3.40510	-0.269
3.40676	-0.303
3.40843	-0.282
3.41010	-0.310
3.41176	-0.266
3.41343	-0.265
3.41510	-0.225
3.41676	-0.249
3.41843	-0.239
3.42010	-0.255
3.42177	-0.246
3.42343	-0.288
3.42510	-0.317
3.42677	-0.379
3.42843	-0.455
3.43010	-0.519
3.43177	-0.530
3.43343	-0.517
3.43510	-0.510
3.43677	-0.478
3.43843	-0.469
3.44010	-0.514
3.44177	-0.558
3.44343	-0.569
3.44510	-0.566
3.44677	-0.569
3.44843	-0.531
3.45010	-0.484
3.45177	-0.473
3.45343	-0.504
3.45510	-0.457
3.45677	-0.448
3.45843	-0.471
3.46010	-0.435
3.46177	-0.390
3.46343	-0.453
3.46510	-0.471
3.46677	-0.426
3.46844	-0.422
3.47010	-0.417
3.47177	-0.367
3.47344	-0.331
3.47510	-0.367
3.47677	-0.392
3.47844	-0.374
3.48010	-0.318
3.48177	-0.269
3.48344	-0.227
3.48510	-0.183
3.48677	-0.219
3.48844	-0.307
3.49010	-0.389
3.49177	-0.446
3.49344	-0.542
3.49510	-0.592
3.49677	-0.609
3.49844	-0.640
3.50010	-0.656
}
[PEAK]
{
Peak ID	3
Peak Ref	28
Time	1.0833
Peak	1.0583	1.1450
Intensity	136096.00	205584.00
Height	2063891.38
AreaAbs	80218.2031
Area %BP	100.00
Area %Total	92.50
Width	0.09
Response Test	0
}
[PEAK]
{
Peak ID	11
Peak Ref	29
Time	1.5900
Peak	1.5500	1.6367
Intensity	252416.00	260784.00
Height	305769.84
AreaAbs	6508.5938
Area %BP	8.11
Area %Total	7.50
Width	0.09
Response Test	0
}
}
[CHROMATOGRAM]
{
TraceNumber	10
Description	DAD: 254
ProcDesc
MaxIntensity	2971904.00
[TRACE]
{
0.50000	0.064
0.50167	0.072
0.50333	0.079
0.50500	0.083
0.50667	0.086
0.50833	0.094
0.51000	0.096
0.51167	0.094
0.51333	0.094
0.51500	0.094
0.51667	0.086
0.51833	0.086
0.52000	0.096
0.52167	0.108
0.52333	0.121
0.52500	0.139
0.52667	0.150
0.52833	0.148
0.53000	0.139
0.53167	0.128
0.53333	0.121
0.53500	0.113
0.53667	0.107
0.53833	0.112
0.54000	0.116
0.54167	0.112
0.54333	0.111
0.54500	0.113
0.54667	0.107
0.54833	0.105
0.55000	0.110
0.55167	0.117
0.55333	0.121
0.55500	0.129
0.55667	0.137
0.55833	0.138
0.56000	0.137
0.56167	0.143
0.56333	0.143
0.56500	0.139
0.56667	0.137
0.56833	0.132
0.57000	0.126
0.57167	0.122
0.57333	0.121
0.57500	0.117
0.57667	0.118
0.57833	0.111
0.58000	0.108
0.58167	0.102
0.58333	0.101
0.58500	0.092
0.58667	0.094
0.58833	0.091
0.59000	0.087
0.59167	0.080
0.59333	0.079
0.59500	0.072
0.59667	0.074
0.59833	0.075
0.60000	0.078
0.60167	0.082
0.60333	0.086
0.60500	0.083
0.60667	0.085
0.60833	0.085
0.61000	0.078
0.61167	0.076
0.61333	0.071
0.61500	0.065
0.61667	0.062
0.61833	0.066
0.62000	0.066
0.62167	0.069
0.62333	0.068
0.62500	0.064
0.62667	0.057
0.62833	0.049
0.63000	0.043
0.63167	0.041
0.63333	0.040
0.63500	0.036
0.63667	0.037
0.63833	0.040
0.64000	0.040
0.64167	0.041
0.64333	0.047
0.64500	0.047
0.64667	0.045
0.64833	0.045
0.65000	0.047
0.65167	0.047
0.65333	0.049
0.65500	0.049
0.65667	0.050
0.65833	0.048
0.66000	0.047
0.66167	0.045
0.66333	0.041
0.66500	0.032
0.66667	0.024
0.66833	0.020
0.67000	0.018
0.67167	0.026
0.67333	0.037
0.67500	0.043
0.67667	0.051
0.67833	0.057
0.68000	0.053
0.68167	0.053
0.68333	0.059
0.68500	0.060
0.68667	0.061
0.68833	0.067
0.69000	0.067
0.69167	0.066
0.69333	0.061
0.69500	0.055
0.69667	0.046
0.69833	0.040
0.70000	0.032
0.70167	0.032
0.70333	0.030
0.70500	0.031
0.70667	0.031
0.70833	0.030
0.71000	0.025
0.71167	0.024
0.71333	0.023
0.71500	0.023
0.71667	0.025
0.71833	0.027
0.72000	0.031
0.72167	0.031
0.72333	0.034
0.72500	0.034
0.72667	0.040
0.72833	0.040
0.73000	0.042
0.73167	0.041
0.73333	0.042
0.73500	0.041
0.73667	0.040
0.73833	0.036
0.74000	0.035
0.74167	0.033
0.74333	0.027
0.74500	0.028
0.74667	0.033
0.74833	0.040
0.75000	0.042
0.75167	0.049
0.75333	0.046
0.75500	0.043
0.75667	0.037
0.75833	0.036
0.76000	0.032
0.76167	0.035
0.76333	0.030
0.76500	0.034
0.76667	0.036
0.76833	0.036
0.77000	0.035
0.77167	0.042
0.77333	0.038
0.77500	0.033
0.77667	0.033
0.77833	0.030
0.78000	0.022
0.78167	0.025
0.78333	0.028
0.78500	0.030
0.78667	0.036
0.78833	0.042
0.79000	0.043
0.79167	0.045
0.79333	0.045
0.79500	0.042
0.79667	0.037
0.79833	0.029
0.80000	0.022
0.80167	0.018
0.80333	0.017
0.80500	0.024
0.80667	0.032
0.80833	0.035
0.81000	0.037
0.81167	0.038
0.81333	0.032
0.81500	0.029
0.81667	0.033
0.81833	0.039
0.82000	0.040
0.82167	0.046
0.82333	0.052
0.82500	0.057
0.82667	0.059
0.82833	0.062
0.83000	0.062
0.83167	0.059
0.83333	0.051
0.83500	0.045
0.83667	0.045
0.83833	0.048
0.84000	0.049
0.84167	0.057
0.84333	0.060
0.84500	0.055
0.84667	0.044
0.84833	0.037
0.85000	0.021
0.85167	0.009
0.85333	0.006
0.85500	0.010
0.85667	0.012
0.85833	0.019
0.86000	0.030
0.86167	0.033
0.86333	0.038
0.86500	0.043
0.86667	0.048
0.86833	0.048
0.87000	0.053
0.87167	0.052
0.87333	0.051
0.87500	0.049
0.87667	0.050
0.87833	0.045
0.88000	0.043
0.88167	0.043
0.88333	0.040
0.88500	0.039
0.88667	0.042
0.88833	0.044
0.89000	0.046
0.89167	0.052
0.89333	0.055
0.89500	0.057
0.89667	0.060
0.89833	0.062
0.90000	0.065
0.90167	0.068
0.90333	0.065
0.90500	0.060
0.90667	0.056
0.90833	0.051
0.91000	0.045
0.91167	0.050
0.91333	0.061
0.91500	0.068
0.91667	0.073
0.91833	0.077
0.92000	0.071
0.92167	0.065
0.92333	0.059
0.92500	0.053
0.92667	0.052
0.92833	0.054
0.93000	0.050
0.93167	0.046
0.93333	0.046
0.93500	0.045
0.93667	0.046
0.93833	0.054
0.94000	0.072
0.94167	0.090
0.94333	0.106
0.94500	0.123
0.94667	0.138
0.94833	0.144
0.95000	0.148
0.95167	0.152
0.95333	0.151
0.95500	0.144
0.95667	0.135
0.95833	0.122
0.96000	0.106
0.96167	0.094
0.96333	0.084
0.96500	0.076
0.96667	0.073
0.96833	0.070
0.97000	0.067
0.97167	0.063
0.97333	0.062
0.97500	0.058
0.97667	0.056
0.97833	0.055
0.98000	0.057
0.98167	0.061
0.98333	0.067
0.98500	0.076
0.98667	0.083
0.98833	0.091
0.99000	0.092
0.99167	0.095
0.99333	0.095
0.99500	0.097
0.99667	0.095
0.99833	0.096
1.00000	0.095
1.00167	0.093
1.00333	0.091
1.00500	0.090
1.00667	0.089
1.00833	0.087
1.01000	0.084
1.01167	0.078
1.01333	0.076
1.01500	0.075
1.01667	0.070
1.01833	0.067
1.02000	0.067
1.02167	0.065
1.02333	0.065
1.02500	0.074
1.02667	0.085
1.02833	0.099
1.03000	0.113
1.03167	0.122
1.03333	0.125
1.03500	0.123
1.03667	0.118
1.03833	0.112
1.04000	0.111
1.04167	0.111
1.04333	0.112
1.04500	0.106
1.04667	0.102
1.04833	0.094
1.05000	0.083
1.05167	0.075
1.05333	0.076
1.05500	0.076
1.05667	0.080
1.05833	0.099
1.06000	0.183
1.06167	0.579
1.06333	1.866
1.06500	4.995
1.06667	11.065
1.06833	20.452
1.07000	33.362
1.07167	47.885
1.07333	62.671
1.07500	75.080
1.07667	84.658
1.07833	90.318
1.08000	94.487
1.08167	96.055
1.08333	97.114
1.08500	96.761
1.08667	97.071
1.08833	96.184
1.09000	96.348
1.09167	97.485
1.09333	100.000
1.09500	99.991
1.09667	99.457
1.09833	97.097
1.10000	91.576
1.10167	84.081
1.10333	77.638
1.10500	69.924
1.10667	62.021
1.10833	54.755
1.11000	47.648
1.11167	40.354
1.11333	34.064
1.11500	28.441
1.11667	23.594
1.11833	19.481
1.12000	16.000
1.12167	13.111
1.12333	10.726
1.12500	8.793
1.12667	7.244
1.12833	6.007
1.13000	5.031
1.13167	4.261
1.13333	3.660
1.13500	3.192
1.13667	2.832
1.13833	2.549
1.14000	2.330
1.14167	2.164
1.14333	2.049
1.14500	2.000
1.14667	2.049
1.14833	2.241
1.15000	2.612
1.15167	3.166
1.15333	3.886
1.15500	4.698
1.15667	5.490
1.15833	6.146
1.16000	6.586
1.16167	6.743
1.16333	6.610
1.16500	6.223
1.16667	5.657
1.16833	4.968
1.17000	4.241
1.17167	3.538
1.17333	2.911
1.17500	2.370
1.17667	1.941
1.17833	1.615
1.18000	1.379
1.18167	1.210
1.18333	1.094
1.18500	1.012
1.18667	0.946
1.18833	0.887
1.19000	0.834
1.19167	0.790
1.19333	0.748
1.19500	0.719
1.19667	0.693
1.19833	0.671
1.20000	0.649
1.20167	0.632
1.20333	0.612
1.20500	0.601
1.20667	0.593
1.20833	0.591
1.21000	0.589
1.21167	0.595
1.21333	0.604
1.21500	0.616
1.21667	0.630
1.21833	0.649
1.22000	0.668
1.22167	0.683
1.22333	0.687
1.22500	0.681
1.22667	0.664
1.22833	0.632
1.23000	0.592
1.23167	0.558
1.23333	0.531
1.23500	0.520
1.23667	0.533
1.23833	0.567
1.24000	0.615
1.24167	0.671
1.24333	0.722
1.24500	0.762
1.24667	0.786
1.24833	0.795
1.25000	0.790
1.25167	0.773
1.25333	0.752
1.25500	0.728
1.25667	0.705
1.25833	0.692
1.26000	0.695
1.26167	0.717
1.26333	0.763
1.26500	0.830
1.26667	0.906
1.26833	0.991
1.27000	1.057
1.27167	1.101
1.27333	1.117
1.27500	1.106
1.27667	1.071
1.27833	1.032
1.28000	0.995
1.28167	0.961
1.28333	0.936
1.28500	0.914
1.28667	0.893
1.28833	0.863
1.29000	0.834
1.29167	0.801
1.29333	0.771
1.29500	0.740
1.29667	0.718
1.29833	0.699
1.30000	0.682
1.30167	0.667
1.30333	0.661
1.30500	0.655
1.30667	0.655
1.30833	0.657
1.31000	0.665
1.31167	0.670
1.31333	0.678
1.31500	0.684
1.31667	0.692
1.31833	0.702
1.32000	0.713
1.32167	0.724
1.32333	0.729
1.32500	0.730
1.32667	0.718
1.32833	0.700
1.33000	0.676
1.33167	0.650
1.33333	0.622
1.33500	0.602
1.33667	0.580
1.33833	0.558
1.34000	0.540
1.34167	0.527
1.34333	0.512
1.34500	0.507
1.34667	0.506
1.34833	0.505
1.35000	0.503
1.35167	0.503
1.35333	0.499
1.35500	0.494
1.35667	0.488
1.35833	0.485
1.36000	0.486
1.36167	0.480
1.36333	0.479
1.36500	0.475
1.36667	0.463
1.36833	0.452
1.37000	0.452
1.37167	0.451
1.37333	0.451
1.37500	0.458
1.37667	0.465
1.37833	0.463
1.38000	0.463
1.38167	0.464
1.38333	0.465
1.38500	0.462
1.38667	0.462
1.38833	0.461
1.39000	0.461
1.39167	0.456
1.39333	0.453
1.39500	0.448
1.39667	0.440
1.39833	0.431
1.40000	0.429
1.40167	0.429
1.40333	0.437
1.40500	0.450
1.40667	0.472
1.40833	0.496
1.41000	0.526
1.41167	0.553
1.41333	0.580
1.41500	0.597
1.41667	0.609
1.41833	0.613
1.42000	0.606
1.42167	0.593
1.42333	0.576
1.42500	0.554
1.42667	0.527
1.42833	0.502
1.43000	0.480
1.43167	0.462
1.43333	0.447
1.43500	0.439
1.43667	0.432
1.43833	0.423
1.44000	0.420
1.44167	0.413
1.44333	0.412
1.44500	0.416
1.44667	0.428
1.44833	0.435
1.45000	0.453
1.45167	0.463
1.45333	0.469
1.45500	0.466
1.45667	0.470
1.45833	0.467
1.46000	0.469
1.46167	0.471
1.46333	0.479
1.46500	0.479
1.46667	0.478
1.46833	0.473
1.47000	0.473
1.47167	0.470
1.47333	0.470
1.47500	0.471
1.47667	0.471
1.47833	0.469
1.48000	0.467
1.48167	0.464
1.48333	0.460
1.48500	0.454
1.48667	0.443
1.48833	0.431
1.49000	0.420
1.49167	0.411
1.49333	0.405
1.49500	0.403
1.49667	0.401
1.49833	0.400
1.50000	0.393
1.50167	0.391
1.50333	0.391
1.50500	0.396
1.50667	0.396
1.50833	0.399
1.51000	0.395
1.51167	0.390
1.51333	0.381
1.51500	0.378
1.51667	0.375
1.51833	0.379
1.52000	0.387
1.52167	0.396
1.52333	0.409
1.52500	0.423
1.52667	0.432
1.52833	0.438
1.53000	0.444
1.53167	0.442
1.53333	0.435
1.53500	0.431
1.53667	0.423
1.53833	0.410
1.54000	0.401
1.54167	0.395
1.54333	0.389
1.54500	0.384
1.54667	0.387
1.54833	0.386
1.55000	0.389
1.55167	0.393
1.55333	0.399
1.55500	0.404
1.55667	0.411
1.55833	0.414
1.56000	0.417
1.56167	0.425
1.56333	0.444
1.56500	0.473
1.56667	0.522
1.56833	0.589
1.57000	0.671
1.57167	0.773
1.57333	0.914
1.57500	1.111
1.57667	1.394
1.57833	1.775
1.58000	2.258
1.58167	2.803
1.58333	3.346
1.58500	3.816
1.58667	4.153
1.58833	4.311
1.59000	4.291
1.59167	4.121
1.59333	3.839
1.59500	3.491
1.59667	3.118
1.59833	2.728
1.60000	2.345
1.60167	1.979
1.60333	1.639
1.60500	1.332
1.60667	1.079
1.60833	0.875
1.61000	0.724
1.61167	0.618
1.61333	0.546
1.61500	0.498
1.61667	0.473
1.61833	0.453
1.62000	0.437
1.62167	0.431
1.62333	0.427
1.62500	0.415
1.62667	0.409
1.62833	0.409
1.63000	0.405
1.63167	0.400
1.63333	0.401
1.63500	0.399
1.63667	0.397
1.63833	0.397
1.64000	0.398
1.64167	0.402
1.64333	0.407
1.64500	0.404
1.64667	0.401
1.64833	0.392
1.65000	0.376
1.65167	0.361
1.65333	0.355
1.65500	0.349
1.65667	0.350
1.65833	0.359
1.66000	0.367
1.66167	0.368
1.66333	0.368
1.66500	0.365
1.66667	0.355
1.66833	0.348
1.67000	0.347
1.67167	0.347
1.67333	0.346
1.67500	0.349
1.67667	0.349
1.67833	0.341
1.68000	0.336
1.68167	0.332
1.68333	0.328
1.68500	0.329
1.68667	0.334
1.68833	0.338
1.69000	0.340
1.69167	0.343
1.69333	0.341
1.69500	0.347
1.69667	0.354
1.69833	0.365
1.70000	0.372
1.70167	0.382
1.70333	0.381
1.70500	0.377
1.70667	0.370
1.70833	0.364
1.71000	0.355
1.71167	0.348
1.71333	0.342
1.71500	0.339
1.71667	0.337
1.71833	0.337
1.72000	0.337
1.72167	0.338
1.72333	0.338
1.72500	0.333
1.72667	0.325
1.72833	0.321
1.73000	0.316
1.73167	0.311
1.73333	0.313
1.73500	0.318
1.73667	0.324
1.73833	0.330
1.74000	0.333
1.74167	0.332
1.74333	0.333
1.74500	0.328
1.74667	0.321
1.74833	0.316
1.75000	0.315
1.75167	0.308
1.75333	0.308
1.75500	0.310
1.75667	0.309
1.75833	0.307
1.76000	0.311
1.76167	0.306
1.76333	0.307
1.76500	0.306
1.76667	0.303
1.76833	0.294
1.77000	0.289
1.77167	0.279
1.77333	0.274
1.77500	0.275
1.77667	0.281
1.77833	0.290
1.78000	0.306
1.78167	0.317
1.78333	0.319
1.78500	0.321
1.78667	0.319
1.78833	0.312
1.79000	0.307
1.79167	0.311
1.79333	0.310
1.79500	0.305
1.79667	0.295
1.79833	0.286
1.80000	0.274
1.80167	0.266
1.80333	0.266
1.80500	0.275
1.80667	0.280
1.80833	0.282
1.81000	0.284
1.81167	0.287
1.81333	0.283
1.81500	0.287
1.81667	0.296
1.81833	0.304
1.82000	0.306
1.82167	0.311
1.82333	0.314
1.82500	0.311
1.82667	0.307
1.82833	0.304
1.83000	0.306
1.83167	0.303
1.83333	0.302
1.83500	0.304
1.83667	0.305
1.83833	0.301
1.84000	0.301
1.84167	0.303
1.84333	0.307
1.84500	0.307
1.84667	0.308
1.84833	0.304
1.85000	0.300
1.85167	0.291
1.85333	0.286
1.85500	0.280
1.85667	0.280
1.85833	0.277
1.86000	0.282
1.86167	0.288
1.86333	0.296
1.86500	0.301
1.86667	0.305
1.86833	0.304
1.87000	0.299
1.87167	0.296
1.87333	0.292
1.87500	0.296
1.87666	0.302
1.87833	0.307
1.88000	0.316
1.88166	0.326
1.88333	0.326
1.88500	0.323
1.88666	0.322
1.88833	0.315
1.89000	0.304
1.89166	0.302
1.89333	0.304
1.89500	0.302
1.89666	0.300
1.89833	0.302
1.90000	0.300
1.90166	0.296
1.90333	0.299
1.90500	0.303
1.90666	0.306
1.90833	0.307
1.91000	0.306
1.91166	0.296
1.91333	0.288
1.91500	0.279
1.91666	0.269
1.91833	0.259
1.92000	0.261
1.92166	0.259
1.92333	0.262
1.92500	0.265
1.92666	0.274
1.92833	0.274
1.93000	0.278
1.93166	0.276
1.93333	0.277
1.93500	0.271
1.93666	0.269
1.93833	0.265
1.94000	0.267
1.94166	0.269
1.94333	0.275
1.94500	0.283
1.94666	0.287
1.94833	0.294
1.95000	0.300
1.95166	0.306
1.95333	0.303
1.95500	0.306
1.95666	0.300
1.95833	0.296
1.96000	0.291
1.96166	0.293
1.96333	0.292
1.96500	0.299
1.96666	0.301
1.96833	0.304
1.97000	0.303
1.97166	0.304
1.97333	0.298
1.97500	0.293
1.97666	0.289
1.97833	0.290
1.98000	0.289
1.98166	0.295
1.98333	0.302
1.98500	0.305
1.98666	0.302
1.98833	0.298
1.99000	0.294
1.99166	0.290
1.99333	0.285
1.99500	0.285
1.99666	0.288
1.99833	0.289
2.00000	0.290
2.00166	0.297
2.00333	0.298
2.00500	0.297
2.00667	0.296
2.00833	0.295
2.01000	0.298
2.01167	0.305
2.01333	0.313
2.01500	0.320
2.01667	0.331
2.01833	0.331
2.02000	0.327
2.02167	0.323
2.02333	0.317
2.02500	0.302
2.02667	0.294
2.02833	0.290
2.03000	0.289
2.03167	0.287
2.03333	0.292
2.03500	0.293
2.03667	0.292
2.03833	0.289
2.04000	0.289
2.04167	0.293
2.04333	0.297
2.04500	0.302
2.04667	0.311
2.04833	0.317
2.05000	0.315
2.05167	0.319
2.05334	0.322
2.05500	0.316
2.05667	0.309
2.05834	0.307
2.06000	0.300
2.06167	0.292
2.06334	0.294
2.06500	0.299
2.06667	0.301
2.06834	0.303
2.07000	0.305
2.07167	0.298
2.07334	0.290
2.07500	0.287
2.07667	0.287
2.07834	0.287
2.08000	0.293
2.08167	0.300
2.08334	0.299
2.08500	0.297
2.08667	0.300
2.08834	0.301
2.09000	0.303
2.09167	0.306
2.09334	0.309
2.09500	0.305
2.09667	0.304
2.09834	0.304
2.10001	0.308
2.10167	0.309
2.10334	0.315
2.10501	0.317
2.10667	0.316
2.10834	0.312
2.11001	0.311
2.11167	0.307
2.11334	0.301
2.11501	0.300
2.11667	0.299
2.11834	0.299
2.12001	0.307
2.12167	0.318
2.12334	0.323
2.12501	0.330
2.12667	0.333
2.12834	0.327
2.13001	0.318
2.13167	0.314
2.13334	0.308
2.13501	0.303
2.13667	0.304
2.13834	0.304
2.14001	0.304
2.14167	0.304
2.14334	0.309
2.14501	0.310
2.14668	0.310
2.14834	0.313
2.15001	0.314
2.15168	0.311
2.15334	0.311
2.15501	0.314
2.15668	0.314
2.15834	0.319
2.16001	0.322
2.16168	0.321
2.16334	0.319
2.16501	0.316
2.16668	0.312
2.16834	0.312
2.17001	0.315
2.17168	0.318
2.17334	0.320
2.17501	0.324
2.17668	0.325
2.17834	0.325
2.18001	0.326
2.18168	0.331
2.18334	0.332
2.18501	0.332
2.18668	0.333
2.18834	0.337
2.19001	0.335
2.19168	0.336
2.19335	0.336
2.19501	0.340
2.19668	0.338
2.19835	0.342
2.20001	0.343
2.20168	0.348
2.20335	0.347
2.20501	0.351
2.20668	0.351
2.20835	0.351
2.21001	0.350
2.21168	0.347
2.21335	0.337
2.21501	0.331
2.21668	0.323
2.21835	0.316
2.22001	0.314
2.22168	0.320
2.22335	0.325
2.22501	0.332
2.22668	0.335
2.22835	0.334
2.23001	0.328
2.23168	0.322
2.23335	0.314
2.23501	0.313
2.23668	0.313
2.23835	0.314
2.24002	0.316
2.24168	0.318
2.24335	0.319
2.24502	0.321
2.24668	0.330
2.24835	0.334
2.25002	0.340
2.25168	0.342
2.25335	0.341
2.25502	0.332
2.25668	0.331
2.25835	0.326
2.26002	0.321
2.26168	0.315
2.26335	0.316
2.26502	0.313
2.26668	0.312
2.26835	0.319
2.27002	0.330
2.27168	0.333
2.27335	0.332
2.27502	0.332
2.27668	0.332
2.27835	0.328
2.28002	0.331
2.28168	0.337
2.28335	0.338
2.28502	0.335
2.28668	0.332
2.28835	0.331
2.29002	0.331
2.29169	0.338
2.29335	0.344
2.29502	0.351
2.29669	0.350
2.29835	0.349
2.30002	0.339
2.30169	0.329
2.30335	0.320
2.30502	0.318
2.30669	0.315
2.30835	0.321
2.31002	0.330
2.31169	0.336
2.31335	0.339
2.31502	0.346
2.31669	0.346
2.31835	0.343
2.32002	0.343
2.32169	0.343
2.32335	0.340
2.32502	0.341
2.32669	0.340
2.32835	0.341
2.33002	0.338
2.33169	0.333
2.33335	0.326
2.33502	0.324
2.33669	0.321
2.33836	0.319
2.34002	0.322
2.34169	0.326
2.34336	0.325
2.34502	0.328
2.34669	0.332
2.34836	0.331
2.35002	0.330
2.35169	0.328
2.35336	0.324
2.35502	0.322
2.35669	0.323
2.35836	0.324
2.36002	0.330
2.36169	0.335
2.36336	0.340
2.36502	0.346
2.36669	0.351
2.36836	0.349
2.37002	0.342
2.37169	0.333
2.37336	0.316
2.37502	0.304
2.37669	0.297
2.37836	0.299
2.38002	0.301
2.38169	0.309
2.38336	0.316
2.38503	0.321
2.38669	0.328
2.38836	0.336
2.39003	0.344
2.39169	0.349
2.39336	0.356
2.39503	0.351
2.39669	0.347
2.39836	0.341
2.40003	0.338
2.40169	0.327
2.40336	0.324
2.40503	0.324
2.40669	0.323
2.40836	0.321
2.41003	0.331
2.41169	0.339
2.41336	0.343
2.41503	0.347
2.41669	0.349
2.41836	0.341
2.42003	0.330
2.42169	0.317
2.42336	0.307
2.42503	0.304
2.42669	0.308
2.42836	0.316
2.43003	0.330
2.43170	0.341
2.43336	0.345
2.43503	0.347
2.43670	0.344
2.43836	0.338
2.44003	0.333
2.44170	0.326
2.44336	0.319
2.44503	0.316
2.44670	0.313
2.44836	0.312
2.45003	0.314
2.45170	0.323
2.45336	0.334
2.45503	0.341
2.45670	0.347
2.45836	0.350
2.46003	0.348
2.46170	0.342
2.46336	0.341
2.46503	0.341
2.46670	0.348
2.46836	0.353
2.47003	0.356
2.47170	0.359
2.47336	0.360
2.47503	0.354
2.47670	0.350
2.47837	0.350
2.48003	0.346
2.48170	0.342
2.48337	0.341
2.48503	0.344
2.48670	0.348
2.48837	0.356
2.49003	0.368
2.49170	0.376
2.49337	0.375
2.49503	0.372
2.49670	0.367
2.49837	0.364
2.50003	0.363
2.50170	0.367
2.50337	0.372
2.50503	0.374
2.50670	0.368
2.50837	0.362
2.51003	0.358
2.51170	0.351
2.51337	0.344
2.51503	0.342
2.51670	0.343
2.51837	0.340
2.52003	0.340
2.52170	0.339
2.52337	0.341
2.52504	0.339
2.52670	0.339
2.52837	0.338
2.53004	0.339
2.53170	0.339
2.53337	0.341
2.53504	0.343
2.53670	0.348
2.53837	0.353
2.54004	0.354
2.54170	0.356
2.54337	0.356
2.54504	0.351
2.54670	0.345
2.54837	0.343
2.55004	0.339
2.55170	0.335
2.55337	0.337
2.55504	0.342
2.55670	0.345
2.55837	0.352
2.56004	0.360
2.56170	0.361
2.56337	0.362
2.56504	0.364
2.56670	0.363
2.56837	0.360
2.57004	0.362
2.57171	0.360
2.57337	0.359
2.57504	0.358
2.57671	0.358
2.57837	0.355
2.58004	0.351
2.58171	0.347
2.58337	0.342
2.58504	0.337
2.58671	0.333
2.58837	0.335
2.59004	0.338
2.59171	0.343
2.59337	0.351
2.59504	0.358
2.59671	0.363
2.59837	0.367
2.60004	0.375
2.60171	0.376
2.60337	0.380
2.60504	0.383
2.60671	0.380
2.60837	0.369
2.61004	0.363
2.61171	0.356
2.61337	0.349
2.61504	0.349
2.61671	0.352
2.61838	0.354
2.62004	0.352
2.62171	0.352
2.62338	0.351
2.62504	0.347
2.62671	0.345
2.62838	0.347
2.63004	0.345
2.63171	0.342
2.63338	0.344
2.63504	0.347
2.63671	0.344
2.63838	0.346
2.64004	0.345
2.64171	0.342
2.64338	0.332
2.64504	0.331
2.64671	0.325
2.64838	0.328
2.65004	0.336
2.65171	0.348
2.65338	0.356
2.65504	0.366
2.65671	0.372
2.65838	0.370
2.66004	0.371
2.66171	0.371
2.66338	0.374
2.66505	0.372
2.66671	0.374
2.66838	0.373
2.67005	0.372
2.67171	0.367
2.67338	0.365
2.67505	0.363
2.67671	0.357
2.67838	0.352
2.68005	0.350
2.68171	0.355
2.68338	0.359
2.68505	0.367
2.68671	0.376
2.68838	0.379
2.69005	0.373
2.69171	0.369
2.69338	0.369
2.69505	0.366
2.69671	0.365
2.69838	0.367
2.70005	0.366
2.70171	0.360
2.70338	0.357
2.70505	0.355
2.70671	0.353
2.70838	0.352
2.71005	0.352
2.71171	0.350
2.71338	0.348
2.71505	0.344
2.71672	0.346
2.71838	0.345
2.72005	0.347
2.72172	0.351
2.72338	0.358
2.72505	0.359
2.72672	0.367
2.72838	0.366
2.73005	0.368
2.73172	0.364
2.73338	0.362
2.73505	0.358
2.73672	0.361
2.73838	0.358
2.74005	0.354
2.74172	0.352
2.74338	0.348
2.74505	0.342
2.74672	0.340
2.74838	0.345
2.75005	0.350
2.75172	0.357
2.75338	0.369
2.75505	0.378
2.75672	0.384
2.75838	0.388
2.76005	0.385
2.76172	0.378
2.76339	0.369
2.76505	0.361
2.76672	0.351
2.76839	0.348
2.77005	0.345
2.77172	0.346
2.77339	0.346
2.77505	0.350
2.77672	0.350
2.77839	0.353
2.78005	0.354
2.78172	0.355
2.78339	0.355
2.78505	0.353
2.78672	0.351
2.78839	0.349
2.79005	0.348
2.79172	0.346
2.79339	0.347
2.79505	0.349
2.79672	0.350
2.79839	0.352
2.80005	0.354
2.80172	0.358
2.80339	0.357
2.80505	0.359
2.80672	0.357
2.80839	0.355
2.81006	0.346
2.81172	0.344
2.81339	0.339
2.81506	0.342
2.81672	0.341
2.81839	0.349
2.82006	0.350
2.82172	0.352
2.82339	0.350
2.82506	0.351
2.82672	0.343
2.82839	0.338
2.83006	0.330
2.83172	0.323
2.83339	0.317
2.83506	0.314
2.83672	0.315
2.83839	0.321
2.84006	0.328
2.84172	0.333
2.84339	0.341
2.84506	0.346
2.84672	0.347
2.84839	0.343
2.85006	0.341
2.85172	0.337
2.85339	0.335
2.85506	0.337
2.85673	0.342
2.85839	0.346
2.86006	0.351
2.86173	0.350
2.86339	0.348
2.86506	0.345
2.86673	0.342
2.86839	0.334
2.87006	0.333
2.87173	0.325
2.87339	0.317
2.87506	0.313
2.87673	0.316
2.87839	0.318
2.88006	0.327
2.88173	0.340
2.88339	0.346
2.88506	0.343
2.88673	0.339
2.88839	0.332
2.89006	0.324
2.89173	0.317
2.89339	0.313
2.89506	0.310
2.89673	0.307
2.89839	0.300
2.90006	0.294
2.90173	0.290
2.90340	0.285
2.90506	0.280
2.90673	0.273
2.90840	0.267
2.91006	0.256
2.91173	0.248
2.91340	0.235
2.91506	0.231
2.91673	0.226
2.91840	0.226
2.92006	0.224
2.92173	0.226
2.92340	0.221
2.92506	0.214
2.92673	0.203
2.92840	0.196
2.93006	0.190
2.93173	0.188
2.93340	0.185
2.93506	0.186
2.93673	0.183
2.93840	0.176
2.94006	0.168
2.94173	0.166
2.94340	0.162
2.94506	0.158
2.94673	0.153
2.94840	0.150
2.95007	0.140
2.95173	0.128
2.95340	0.118
2.95507	0.110
2.95673	0.107
2.95840	0.103
2.96007	0.106
2.96173	0.110
2.96340	0.111
2.96507	0.104
2.96673	0.106
2.96840	0.098
2.97007	0.088
2.97173	0.084
2.97340	0.081
2.97507	0.074
2.97673	0.072
2.97840	0.069
2.98007	0.064
2.98173	0.062
2.98340	0.056
2.98507	0.054
2.98673	0.055
2.98840	0.053
2.99007	0.049
2.99173	0.051
2.99340	0.049
2.99507	0.042
2.99674	0.043
2.99840	0.050
3.00007	0.047
3.00174	0.040
3.00340	0.037
3.00507	0.025
3.00674	0.006
3.00840	-0.002
3.01007	-0.003
3.01174	-0.005
3.01340	0.003
3.01507	0.011
3.01674	0.011
3.01840	0.014
3.02007	0.018
3.02174	0.013
3.02340	0.014
3.02507	0.018
3.02674	0.013
3.02840	0.007
3.03007	0.004
3.03174	-0.003
3.03340	-0.006
3.03507	-0.005
3.03674	-0.008
3.03840	-0.007
3.04007	-0.006
3.04174	-0.010
3.04341	-0.016
3.04507	-0.019
3.04674	-0.027
3.04841	-0.033
3.05007	-0.031
3.05174	-0.025
3.05341	-0.019
3.05507	-0.008
3.05674	-0.002
3.05841	-0.003
3.06007	-0.006
3.06174	-0.010
3.06341	-0.015
3.06507	-0.021
3.06674	-0.021
3.06841	-0.020
3.07007	-0.020
3.07174	-0.019
3.07341	-0.015
3.07507	-0.013
3.07674	-0.013
3.07841	-0.009
3.08007	-0.005
3.08174	-0.005
3.08341	-0.008
3.08507	-0.010
3.08674	-0.016
3.08841	-0.027
3.09008	-0.029
3.09174	-0.028
3.09341	-0.026
3.09508	-0.019
3.09674	-0.008
3.09841	-0.003
3.10008	0.002
3.10174	0.003
3.10341	0.006
3.10508	0.003
3.10674	0.005
3.10841	0.007
3.11008	0.010
3.11174	0.008
3.11341	0.011
3.11508	0.009
3.11674	0.005
3.11841	0.002
3.12008	-0.000
3.12174	-0.003
3.12341	-0.004
3.12508	-0.005
3.12674	-0.003
3.12841	-0.002
3.13008	-0.003
3.13174	-0.001
3.13341	0.001
3.13508	0.000
3.13674	-0.000
3.13841	-0.003
3.14008	-0.006
3.14175	-0.011
3.14341	-0.013
3.14508	-0.012
3.14675	-0.008
3.14841	-0.004
3.15008	0.001
3.15175	0.005
3.15341	0.004
3.15508	0.004
3.15675	0.003
3.15841	0.004
3.16008	0.002
3.16175	0.005
3.16341	0.007
3.16508	0.011
3.16675	0.012
3.16841	0.016
3.17008	0.016
3.17175	0.018
3.17341	0.017
3.17508	0.013
3.17675	0.006
3.17841	-0.000
3.18008	-0.015
3.18175	-0.024
3.18341	-0.024
3.18508	-0.023
3.18675	-0.021
3.18842	-0.006
3.19008	0.002
3.19175	0.006
3.19342	0.006
3.19508	0.010
3.19675	0.002
3.19842	-0.002
3.20008	-0.007
3.20175	-0.007
3.20342	-0.005
3.20508	0.001
3.20675	0.009
3.20842	0.021
3.21008	0.024
3.21175	0.024
3.21342	0.022
3.21508	0.019
3.21675	0.010
3.21842	0.008
3.22008	0.005
3.22175	-0.001
3.22342	-0.008
3.22508	-0.011
3.22675	-0.015
3.22842	-0.018
3.23008	-0.013
3.23175	-0.006
3.23342	0.002
3.23509	0.008
3.23675	0.011
3.23842	0.010
3.24009	0.008
3.24175	0.003
3.24342	-0.002
3.24509	-0.002
3.24675	0.001
3.24842	0.004
3.25009	0.009
3.25175	0.017
3.25342	0.025
3.25509	0.027
3.25675	0.029
3.25842	0.027
3.26009	0.024
3.26175	0.018
3.26342	0.013
3.26509	0.007
3.26675	0.002
3.26842	-0.003
3.27009	-0.007
3.27175	-0.005
3.27342	-0.003
3.27509	0.001
3.27675	-0.000
3.27842	0.005
3.28009	0.003
3.28176	0.003
3.28342	0.002
3.28509	0.009
3.28676	0.010
3.28842	0.012
3.29009	0.013
3.29176	0.014
3.29342	0.011
3.29509	0.013
3.29676	0.013
3.29842	0.014
3.30009	0.015
3.30176	0.016
3.30342	0.012
3.30509	0.009
3.30676	0.009
3.30842	0.012
3.31009	0.016
3.31176	0.019
3.31342	0.023
3.31509	0.025
3.31676	0.019
3.31842	0.015
3.32009	0.018
3.32176	0.021
3.32342	0.021
3.32509	0.024
3.32676	0.028
3.32843	0.025
3.33009	0.024
3.33176	0.026
3.33343	0.029
3.33509	0.029
3.33676	0.033
3.33843	0.031
3.34009	0.028
3.34176	0.025
3.34343	0.019
3.34509	0.018
3.34676	0.017
3.34843	0.020
3.35009	0.024
3.35176	0.031
3.35343	0.029
3.35509	0.026
3.35676	0.016
3.35843	0.004
3.36009	-0.000
3.36176	-0.001
3.36343	0.007
3.36509	0.018
3.36676	0.035
3.36843	0.035
3.37009	0.037
3.37176	0.034
3.37343	0.029
3.37510	0.021
3.37676	0.024
3.37843	0.022
3.38010	0.023
3.38176	0.028
3.38343	0.029
3.38510	0.026
3.38676	0.030
3.38843	0.029
3.39010	0.025
3.39176	0.027
3.39343	0.022
3.39510	0.017
3.39676	0.014
3.39843	0.011
3.40010	0.004
3.40176	0.011
3.40343	0.010
3.40510	0.010
3.40676	0.009
3.40843	0.015
3.41010	0.007
3.41176	0.006
3.41343	0.006
3.41510	0.011
3.41676	0.009
3.41843	0.014
3.42010	0.019
3.42177	0.022
3.42343	0.021
3.42510	0.021
3.42677	0.020
3.42843	0.018
3.43010	0.012
3.43177	0.007
3.43343	0.006
3.43510	0.004
3.43677	-0.002
3.43843	-0.000
3.44010	0.001
3.44177	0.005
3.44343	0.009
3.44510	0.017
3.44677	0.027
3.44843	0.034
3.45010	0.037
3.45177	0.040
3.45343	0.041
3.45510	0.037
3.45677	0.032
3.45843	0.030
3.46010	0.029
3.46177	0.026
3.46343	0.028
3.46510	0.033
3.46677	0.037
3.46844	0.037
3.47010	0.040
3.47177	0.039
3.47344	0.038
3.47510	0.039
3.47677	0.041
3.47844	0.044
3.48010	0.049
3.48177	0.051
3.48344	0.046
3.48510	0.047
3.48677	0.043
3.48844	0.035
3.49010	0.032
3.49177	0.034
3.49344	0.029
3.49510	0.024
3.49677	0.021
3.49844	0.014
3.50010	0.007
}
[PEAK]
{
Peak ID	3
Peak Ref	30
Time	1.0933
Peak	1.0583	1.1450
Intensity	2938.00	59436.00
Height	2946149.50
AreaAbs	112494.9531
Area %BP	100.00
Area %Total	100.00
Width	0.09
Response Test	0
}
}
}
[FUNCTION]
{
Function	0
Description	ANALOG
[CHROMATOGRAM]
{
TraceNumber	11
Description	System Pressure
CustomChartParameters	,$CC$,1.000000,0.000000,3,0,0,bar
ProcDesc	Smooth (Mn, 2x2)
MaxIntensity	412.29
[TRACE]
{
0.00167	87.708
0.00333	87.704
0.00500	87.700
0.00667	87.699
0.00833	87.700
0.01000	87.698
0.01167	87.695
0.01333	87.214
0.01500	86.856
0.01667	86.585
0.01833	86.389
0.02000	86.271
0.02167	86.211
0.02333	86.204
0.02500	86.242
0.02667	86.324
0.02833	86.442
0.03000	87.070
0.03167	87.602
0.03333	88.072
0.03500	88.484
0.03667	88.845
0.03833	89.162
0.04000	89.434
0.04167	89.672
0.04333	89.876
0.04500	90.051
0.04667	90.201
0.04833	90.330
0.05000	90.437
0.05167	90.539
0.05333	90.639
0.05500	90.739
0.05667	90.844
0.05833	90.956
0.06000	91.067
0.06167	91.166
0.06333	91.251
0.06500	91.320
0.06667	91.380
0.06833	91.425
0.07000	91.443
0.07167	91.439
0.07333	91.421
0.07500	91.381
0.07667	91.328
0.07833	91.280
0.08000	91.239
0.08167	91.203
0.08333	91.171
0.08500	91.141
0.08667	91.116
0.08833	91.096
0.09000	91.077
0.09167	91.059
0.09333	91.047
0.09500	91.036
0.09667	91.025
0.09833	91.017
0.10000	91.005
0.10167	90.998
0.10333	90.994
0.10500	90.986
0.10667	90.975
0.10833	90.967
0.11000	90.958
0.11167	90.948
0.11333	90.942
0.11500	90.940
0.11667	90.941
0.11833	90.938
0.12000	90.938
0.12167	90.940
0.12333	90.944
0.12500	90.951
0.12667	90.957
0.12833	90.961
0.13000	90.963
0.13167	90.964
0.13333	90.961
0.13500	90.961
0.13667	90.959
0.13833	90.956
0.14000	90.953
0.14167	90.949
0.14333	90.946
0.14500	90.943
0.14667	90.943
0.14833	90.942
0.15000	90.939
0.15167	90.940
0.15333	90.940
0.15500	90.940
0.15667	90.940
0.15833	90.933
0.16000	90.928
0.16167	90.928
0.16333	90.924
0.16500	90.920
0.16667	90.924
0.16833	90.923
0.17000	90.920
0.17167	90.919
0.17333	90.923
0.17500	90.927
0.17667	90.928
0.17833	90.931
0.18000	90.930
0.18167	90.928
0.18333	90.927
0.18500	90.923
0.18667	90.921
0.18833	90.916
0.19000	90.912
0.19167	90.907
0.19333	90.904
0.19500	90.900
0.19667	90.897
0.19833	90.893
0.20000	90.890
0.20167	90.889
0.20333	90.889
0.20500	90.887
0.20667	90.882
0.20833	90.883
0.21000	90.878
0.21167	90.878
0.21333	90.881
0.21500	90.883
0.21667	90.884
0.21833	90.886
0.22000	90.885
0.22167	90.887
0.22333	90.892
0.22500	90.894
0.22667	90.894
0.22833	90.893
0.23000	90.890
0.23167	90.887
0.23333	90.885
0.23500	90.882
0.23667	90.879
0.23833	90.877
0.24000	90.875
0.24167	90.871
0.24333	90.870
0.24500	90.868
0.24667	90.866
0.24833	90.867
0.25000	90.867
0.25167	90.861
0.25333	90.860
0.25500	90.855
0.25667	90.851
0.25833	90.851
0.26000	90.851
0.26167	90.850
0.26333	90.853
0.26500	90.856
0.26667	90.853
0.26833	90.859
0.27000	90.865
0.27167	90.870
0.27333	90.876
0.27500	90.880
0.27667	90.881
0.27833	90.882
0.28000	90.882
0.28167	90.881
0.28333	90.880
0.28500	90.880
0.28667	90.878
0.28833	90.878
0.29000	90.879
0.29167	90.880
0.29333	90.881
0.29500	90.881
0.29667	90.878
0.29833	90.879
0.30000	90.884
0.30167	90.886
0.30333	90.886
0.30500	90.887
0.30667	90.887
0.30833	90.890
0.31000	90.895
0.31167	90.902
0.31333	90.913
0.31500	90.919
0.31667	90.922
0.31833	90.927
0.32000	90.935
0.32167	90.939
0.32333	90.944
0.32500	90.945
0.32667	90.945
0.32833	90.944
0.33000	90.944
0.33167	90.944
0.33333	90.944
0.33500	90.946
0.33667	90.946
0.33833	90.949
0.34000	90.949
0.34167	90.946
0.34333	90.949
0.34500	90.952
0.34667	90.950
0.34833	90.949
0.35000	90.950
0.35167	90.947
0.35333	90.941
0.35500	90.933
0.35667	90.925
0.35833	90.917
0.36000	90.904
0.36167	90.889
0.36333	90.875
0.36500	90.857
0.36667	90.839
0.36833	90.822
0.37000	90.802
0.37167	90.785
0.37333	90.768
0.37500	90.749
0.37667	90.732
0.37833	90.716
0.38000	90.699
0.38167	90.685
0.38333	90.670
0.38500	90.658
0.38667	90.646
0.38833	90.635
0.39000	90.625
0.39167	90.616
0.39333	90.602
0.39500	90.592
0.39667	90.585
0.39833	90.578
0.40000	90.570
0.40167	90.560
0.40333	90.553
0.40500	90.547
0.40667	90.544
0.40833	90.541
0.41000	90.547
0.41167	90.549
0.41333	90.547
0.41500	90.548
0.41667	90.553
0.41833	90.556
0.42000	90.558
0.42167	90.558
0.42333	90.556
0.42500	90.553
0.42667	90.551
0.42833	90.549
0.43000	90.546
0.43167	90.544
0.43333	90.541
0.43500	90.537
0.43667	90.536
0.43833	90.535
0.44000	90.532
0.44167	90.530
0.44333	90.527
0.44500	90.525
0.44667	90.523
0.44833	90.522
0.45000	90.515
0.45167	90.511
0.45333	90.508
0.45500	90.503
0.45667	90.504
0.45833	90.508
0.46000	90.507
0.46167	90.504
0.46333	90.507
0.46500	90.509
0.46667	90.512
0.46833	90.517
0.47000	90.520
0.47167	90.520
0.47333	90.520
0.47500	90.520
0.47667	90.518
0.47833	90.517
0.48000	90.516
0.48167	90.511
0.48333	90.510
0.48500	90.509
0.48667	90.506
0.48833	90.505
0.49000	90.504
0.49167	90.501
0.49333	90.502
0.49500	90.500
0.49667	90.499
0.49833	90.496
0.50000	90.496
0.50167	90.496
0.50333	90.497
0.50500	90.499
0.50667	90.501
0.50833	90.504
0.51000	90.508
0.51167	90.512
0.51333	90.517
0.51500	90.535
0.51667	90.580
0.51833	90.670
0.52000	90.819
0.52167	91.040
0.52333	91.326
0.52500	91.656
0.52667	92.013
0.52833	92.380
0.53000	92.741
0.53167	93.082
0.53333	93.391
0.53500	93.656
0.53667	93.869
0.53833	94.022
0.54000	94.130
0.54167	94.214
0.54333	94.290
0.54500	94.371
0.54667	94.466
0.54833	94.567
0.55000	94.664
0.55167	94.747
0.55333	94.806
0.55500	94.837
0.55667	94.835
0.55833	94.800
0.56000	94.736
0.56167	94.648
0.56333	94.545
0.56500	94.436
0.56667	94.330
0.56833	94.232
0.57000	94.145
0.57167	94.070
0.57333	94.006
0.57500	93.951
0.57667	93.904
0.57833	93.864
0.58000	93.831
0.58167	93.803
0.58333	93.780
0.58500	93.759
0.58667	93.741
0.58833	93.724
0.59000	93.707
0.59167	93.689
0.59333	93.672
0.59500	93.655
0.59667	93.640
0.59833	93.627
0.60000	93.618
0.60167	93.612
0.60333	93.611
0.60500	93.615
0.60667	93.623
0.60833	93.635
0.61000	93.650
0.61167	93.666
0.61333	93.684
0.61500	93.701
0.61667	93.718
0.61833	93.733
0.62000	93.747
0.62167	93.759
0.62333	93.771
0.62500	93.783
0.62667	93.795
0.62833	93.806
0.63000	93.817
0.63167	93.828
0.63333	93.839
0.63500	93.850
0.63667	93.860
0.63833	93.870
0.64000	93.880
0.64167	93.891
0.64333	93.901
0.64500	93.912
0.64667	93.923
0.64833	93.935
0.65000	93.949
0.65167	93.963
0.65333	93.979
0.65500	93.995
0.65667	94.012
0.65833	94.030
0.66000	94.048
0.66167	94.067
0.66333	94.085
0.66500	94.102
0.66667	94.119
0.66833	94.136
0.67000	94.152
0.67167	94.167
0.67333	94.183
0.67500	94.199
0.67667	94.215
0.67833	94.231
0.68000	94.247
0.68167	94.264
0.68333	94.280
0.68500	94.297
0.68667	94.315
0.68833	94.332
0.69000	94.350
0.69167	94.368
0.69333	94.387
0.69500	94.406
0.69667	94.427
0.69833	94.449
0.70000	94.472
0.70167	94.497
0.70333	94.522
0.70500	94.549
0.70667	94.576
0.70833	94.603
0.71000	94.629
0.71167	94.656
0.71333	94.681
0.71500	94.706
0.71667	94.730
0.71833	94.754
0.72000	94.778
0.72167	94.801
0.72333	94.825
0.72500	94.849
0.72667	94.873
0.72833	94.898
0.73000	94.922
0.73167	94.947
0.73333	94.972
0.73500	94.997
0.73667	95.022
0.73833	95.047
0.74000	95.072
0.74167	95.099
0.74333	95.126
0.74500	95.153
0.74667	95.182
0.74833	95.212
0.75000	95.243
0.75167	95.275
0.75333	95.308
0.75500	95.341
0.75667	95.375
0.75833	95.408
0.76000	95.441
0.76167	95.473
0.76333	95.505
0.76500	95.536
0.76667	95.567
0.76833	95.598
0.77000	95.629
0.77167	95.660
0.77333	95.691
0.77500	95.722
0.77667	95.752
0.77833	95.782
0.78000	95.812
0.78167	95.842
0.78333	95.872
0.78500	95.902
0.78667	95.932
0.78833	95.963
0.79000	95.993
0.79167	96.024
0.79333	96.057
0.79500	96.091
0.79667	96.126
0.79833	96.161
0.80000	96.198
0.80167	96.234
0.80333	96.270
0.80500	96.307
0.80667	96.344
0.80833	96.381
0.81000	96.418
0.81167	96.455
0.81333	96.491
0.81500	96.528
0.81667	96.564
0.81833	96.601
0.82000	96.638
0.82167	96.676
0.82333	96.713
0.82500	96.750
0.82667	96.788
0.82833	96.825
0.83000	96.864
0.83167	96.902
0.83333	96.941
0.83500	96.980
0.83667	97.018
0.83833	97.056
0.84000	97.094
0.84167	97.132
0.84333	97.171
0.84500	97.209
0.84667	97.247
0.84833	97.285
0.85000	97.322
0.85167	97.358
0.85333	97.394
0.85500	97.429
0.85667	97.464
0.85833	97.499
0.86000	97.534
0.86167	97.568
0.86333	97.602
0.86500	97.636
0.86667	97.671
0.86833	97.705
0.87000	97.740
0.87167	97.774
0.87333	97.809
0.87500	97.843
0.87667	97.878
0.87833	97.912
0.88000	97.946
0.88167	97.980
0.88333	98.013
0.88500	98.046
0.88667	98.078
0.88833	98.109
0.89000	98.141
0.89167	98.173
0.89333	98.206
0.89500	98.239
0.89667	98.272
0.89833	98.306
0.90000	98.340
0.90167	98.374
0.90333	98.409
0.90500	98.443
0.90667	98.477
0.90833	98.511
0.91000	98.545
0.91167	98.578
0.91333	98.611
0.91500	98.644
0.91667	98.677
0.91833	98.711
0.92000	98.744
0.92167	98.778
0.92333	98.811
0.92500	98.845
0.92667	98.879
0.92833	98.912
0.93000	98.944
0.93167	98.976
0.93333	99.007
0.93500	99.036
0.93667	99.064
0.93833	99.091
0.94000	99.118
0.94167	99.143
0.94333	99.168
0.94500	99.192
0.94667	99.216
0.94833	99.239
0.95000	99.263
0.95167	99.287
0.95333	99.312
0.95500	99.337
0.95667	99.362
0.95833	99.388
0.96000	99.414
0.96167	99.440
0.96333	99.466
0.96500	99.492
0.96667	99.517
0.96833	99.542
0.97000	99.567
0.97167	99.591
0.97333	99.615
0.97500	99.640
0.97667	99.664
0.97833	99.687
0.98000	99.710
0.98167	99.731
0.98333	99.751
0.98500	99.769
0.98667	99.786
0.98833	99.801
0.99000	99.815
0.99167	99.827
0.99333	99.837
0.99500	99.846
0.99667	99.855
0.99833	99.863
1.00000	99.870
1.00167	99.878
1.00333	99.885
1.00500	99.893
1.00667	99.901
1.00833	99.908
1.01000	99.916
1.01167	99.924
1.01333	99.931
1.01500	99.939
1.01667	99.948
1.01833	99.956
1.02000	99.964
1.02167	99.972
1.02333	99.980
1.02500	99.986
1.02667	99.992
1.02833	99.996
1.03000	99.999
1.03167	100.000
1.03333	100.000
1.03500	99.998
1.03667	99.995
1.03833	99.990
1.04000	99.984
1.04167	99.977
1.04333	99.969
1.04500	99.960
1.04667	99.950
1.04833	99.940
1.05000	99.930
1.05167	99.920
1.05333	99.909
1.05500	99.898
1.05667	99.888
1.05833	99.876
1.06000	99.865
1.06167	99.854
1.06333	99.843
1.06500	99.832
1.06667	99.821
1.06833	99.810
1.07000	99.799
1.07167	99.787
1.07333	99.774
1.07500	99.760
1.07667	99.743
1.07833	99.724
1.08000	99.702
1.08167	99.677
1.08333	99.650
1.08500	99.621
1.08667	99.590
1.08833	99.557
1.09000	99.524
1.09167	99.490
1.09333	99.456
1.09500	99.422
1.09667	99.388
1.09833	99.355
1.10000	99.321
1.10167	99.287
1.10333	99.253
1.10500	99.218
1.10667	99.183
1.10833	99.147
1.11000	99.112
1.11167	99.076
1.11333	99.042
1.11500	99.008
1.11667	98.974
1.11833	98.940
1.12000	98.905
1.12167	98.869
1.12333	98.831
1.12500	98.791
1.12667	98.748
1.12833	98.702
1.13000	98.653
1.13167	98.601
1.13333	98.546
1.13500	98.490
1.13667	98.432
1.13833	98.373
1.14000	98.313
1.14167	98.253
1.14333	98.193
1.14500	98.132
1.14667	98.072
1.14833	98.012
1.15000	97.951
1.15167	97.890
1.15333	97.829
1.15500	97.768
1.15667	97.707
1.15833	97.647
1.16000	97.588
1.16167	97.529
1.16333	97.472
1.16500	97.414
1.16667	97.356
1.16833	97.298
1.17000	97.238
1.17167	97.176
1.17333	97.111
1.17500	97.043
1.17667	96.971
1.17833	96.897
1.18000	96.819
1.18167	96.739
1.18333	96.657
1.18500	96.574
1.18667	96.490
1.18833	96.406
1.19000	96.323
1.19167	96.240
1.19333	96.157
1.19500	96.074
1.19667	95.991
1.19833	95.907
1.20000	95.824
1.20167	95.740
1.20333	95.656
1.20500	95.572
1.20667	95.490
1.20833	95.407
1.21000	95.326
1.21167	95.244
1.21333	95.163
1.21500	95.081
1.21667	94.997
1.21833	94.911
1.22000	94.822
1.22167	94.729
1.22333	94.634
1.22500	94.536
1.22667	94.435
1.22833	94.333
1.23000	94.230
1.23167	94.127
1.23333	94.024
1.23500	93.922
1.23667	93.821
1.23833	93.721
1.24000	93.622
1.24167	93.522
1.24333	93.422
1.24500	93.322
1.24667	93.221
1.24833	93.119
1.25000	93.017
1.25167	92.915
1.25333	92.814
1.25500	92.713
1.25667	92.613
1.25833	92.513
1.26000	92.415
1.26167	92.317
1.26333	92.218
1.26500	92.118
1.26667	92.017
1.26833	91.913
1.27000	91.805
1.27167	91.695
1.27333	91.582
1.27500	91.467
1.27667	91.349
1.27833	91.230
1.28000	91.109
1.28167	90.989
1.28333	90.868
1.28500	90.749
1.28667	90.629
1.28833	90.510
1.29000	90.391
1.29167	90.273
1.29333	90.154
1.29500	90.035
1.29667	89.916
1.29833	89.798
1.30000	89.681
1.30167	89.564
1.30333	89.449
1.30500	89.335
1.30667	89.221
1.30833	89.108
1.31000	88.994
1.31167	88.878
1.31333	88.761
1.31500	88.641
1.31667	88.518
1.31833	88.393
1.32000	88.264
1.32167	88.134
1.32333	88.002
1.32500	87.870
1.32667	87.738
1.32833	87.606
1.33000	87.475
1.33167	87.345
1.33333	87.215
1.33500	87.085
1.33667	86.956
1.33833	86.827
1.34000	86.698
1.34167	86.567
1.34333	86.437
1.34500	86.305
1.34667	86.173
1.34833	86.042
1.35000	85.911
1.35167	85.781
1.35333	85.653
1.35500	85.526
1.35667	85.400
1.35833	85.275
1.36000	85.149
1.36167	85.021
1.36333	84.892
1.36500	84.760
1.36667	84.626
1.36833	84.491
1.37000	84.353
1.37167	84.214
1.37333	84.074
1.37500	83.933
1.37667	83.793
1.37833	83.655
1.38000	83.517
1.38167	83.381
1.38333	83.245
1.38500	83.109
1.38667	82.973
1.38833	82.836
1.39000	82.699
1.39167	82.562
1.39333	82.426
1.39500	82.289
1.39667	82.154
1.39833	82.019
1.40000	81.886
1.40167	81.754
1.40333	81.623
1.40500	81.493
1.40667	81.362
1.40833	81.230
1.41000	81.097
1.41167	80.962
1.41333	80.824
1.41500	80.685
1.41667	80.544
1.41833	80.402
1.42000	80.258
1.42167	80.114
1.42333	79.971
1.42500	79.828
1.42667	79.685
1.42833	79.544
1.43000	79.404
1.43167	79.265
1.43333	79.126
1.43500	78.987
1.43667	78.848
1.43833	78.709
1.44000	78.570
1.44167	78.432
1.44333	78.296
1.44500	78.160
1.44667	78.027
1.44833	77.894
1.45000	77.763
1.45167	77.632
1.45333	77.501
1.45500	77.370
1.45667	77.239
1.45833	77.105
1.46000	76.970
1.46167	76.833
1.46333	76.693
1.46500	76.552
1.46667	76.410
1.46833	76.267
1.47000	76.124
1.47167	75.981
1.47333	75.839
1.47500	75.698
1.47667	75.558
1.47833	75.418
1.48000	75.280
1.48167	75.141
1.48333	75.004
1.48500	74.866
1.48667	74.729
1.48833	74.592
1.49000	74.457
1.49167	74.324
1.49333	74.192
1.49500	74.062
1.49667	73.933
1.49833	73.804
1.50000	73.675
1.50167	73.546
1.50333	73.416
1.50500	73.284
1.50667	73.151
1.50833	73.017
1.51000	72.880
1.51167	72.743
1.51333	72.605
1.51500	72.466
1.51667	72.328
1.51833	72.192
1.52000	72.057
1.52167	71.923
1.52333	71.790
1.52500	71.658
1.52667	71.527
1.52833	71.397
1.53000	71.266
1.53167	71.136
1.53333	71.006
1.53500	70.876
1.53667	70.747
1.53833	70.618
1.54000	70.491
1.54167	70.365
1.54333	70.241
1.54500	70.118
1.54667	69.995
1.54833	69.873
1.55000	69.750
1.55167	69.627
1.55333	69.503
1.55500	69.378
1.55667	69.251
1.55833	69.123
1.56000	68.993
1.56167	68.864
1.56333	68.735
1.56500	68.606
1.56667	68.480
1.56833	68.355
1.57000	68.231
1.57167	68.108
1.57333	67.986
1.57500	67.865
1.57667	67.744
1.57833	67.623
1.58000	67.503
1.58167	67.382
1.58333	67.261
1.58500	67.141
1.58667	67.022
1.58833	66.904
1.59000	66.789
1.59167	66.675
1.59333	66.562
1.59500	66.450
1.59667	66.337
1.59833	66.225
1.60000	66.112
1.60167	65.998
1.60333	65.883
1.60500	65.767
1.60667	65.650
1.60833	65.532
1.61000	65.415
1.61167	65.298
1.61333	65.182
1.61500	65.068
1.61667	64.955
1.61833	64.844
1.62000	64.733
1.62167	64.623
1.62333	64.514
1.62500	64.405
1.62667	64.296
1.62833	64.188
1.63000	64.079
1.63167	63.971
1.63333	63.863
1.63500	63.755
1.63667	63.648
1.63833	63.542
1.64000	63.437
1.64167	63.334
1.64333	63.232
1.64500	63.131
1.64667	63.031
1.64833	62.930
1.65000	62.830
1.65167	62.729
1.65333	62.629
1.65500	62.527
1.65667	62.427
1.65833	62.326
1.66000	62.226
1.66167	62.126
1.66333	62.028
1.66500	61.930
1.66667	61.835
1.66833	61.740
1.67000	61.647
1.67167	61.554
1.67333	61.461
1.67500	61.369
1.67667	61.276
1.67833	61.184
1.68000	61.091
1.68167	60.998
1.68333	60.906
1.68500	60.814
1.68667	60.724
1.68833	60.634
1.69000	60.545
1.69167	60.458
1.69333	60.372
1.69500	60.286
1.69667	60.200
1.69833	60.115
1.70000	60.029
1.70167	59.943
1.70333	59.857
1.70500	59.771
1.70667	59.685
1.70833	59.599
1.71000	59.514
1.71167	59.429
1.71333	59.346
1.71500	59.264
1.71667	59.183
1.71833	59.103
1.72000	59.023
1.72167	58.944
1.72333	58.866
1.72500	58.787
1.72667	58.708
1.72833	58.630
1.73000	58.552
1.73167	58.474
1.73333	58.397
1.73500	58.321
1.73667	58.245
1.73833	58.171
1.74000	58.098
1.74167	58.026
1.74333	57.954
1.74500	57.883
1.74667	57.812
1.74833	57.741
1.75000	57.670
1.75167	57.598
1.75333	57.528
1.75500	57.457
1.75667	57.386
1.75833	57.315
1.76000	57.246
1.76167	57.177
1.76333	57.109
1.76500	57.043
1.76667	56.977
1.76833	56.912
1.77000	56.848
1.77167	56.784
1.77333	56.720
1.77500	56.656
1.77667	56.593
1.77833	56.529
1.78000	56.466
1.78167	56.403
1.78333	56.342
1.78500	56.281
1.78667	56.220
1.78833	56.161
1.79000	56.102
1.79167	56.043
1.79333	55.984
1.79500	55.925
1.79667	55.866
1.79833	55.806
1.80000	55.747
1.80167	55.688
1.80333	55.629
1.80500	55.572
1.80667	55.515
1.80833	55.460
1.81000	55.406
1.81167	55.354
1.81333	55.303
1.81500	55.252
1.81667	55.202
1.81833	55.153
1.82000	55.103
1.82167	55.053
1.82333	55.003
1.82500	54.953
1.82667	54.903
1.82833	54.853
1.83000	54.802
1.83167	54.752
1.83333	54.702
1.83500	54.654
1.83667	54.607
1.83833	54.560
1.84000	54.514
1.84167	54.469
1.84333	54.423
1.84500	54.378
1.84667	54.333
1.84833	54.287
1.85000	54.243
1.85167	54.197
1.85333	54.152
1.85500	54.107
1.85667	54.062
1.85833	54.019
1.86000	53.976
1.86167	53.935
1.86333	53.894
1.86500	53.854
1.86667	53.814
1.86833	53.773
1.87000	53.733
1.87167	53.693
1.87333	53.652
1.87500	53.611
1.87666	53.570
1.87833	53.528
1.88000	53.486
1.88166	53.444
1.88333	53.404
1.88500	53.365
1.88666	53.327
1.88833	53.290
1.89000	53.252
1.89166	53.216
1.89333	53.179
1.89500	53.143
1.89666	53.107
1.89833	53.072
1.90000	53.036
1.90166	53.001
1.90333	52.965
1.90500	52.930
1.90666	52.895
1.90833	52.862
1.91000	52.829
1.91166	52.796
1.91333	52.764
1.91500	52.732
1.91666	52.699
1.91833	52.667
1.92000	52.634
1.92166	52.601
1.92333	52.568
1.92500	52.535
1.92666	52.502
1.92833	52.469
1.93000	52.436
1.93166	52.404
1.93333	52.373
1.93500	52.343
1.93666	52.313
1.93833	52.284
1.94000	52.254
1.94166	52.224
1.94333	52.194
1.94500	52.164
1.94666	52.135
1.94833	52.106
1.95000	52.077
1.95166	52.048
1.95333	52.020
1.95500	51.993
1.95666	51.967
1.95833	51.941
1.96000	51.916
1.96166	51.892
1.96333	51.867
1.96500	51.842
1.96666	51.817
1.96833	51.792
1.97000	51.766
1.97166	51.741
1.97333	51.715
1.97500	51.689
1.97666	51.662
1.97833	51.636
1.98000	51.611
1.98166	51.587
1.98333	51.564
1.98500	51.541
1.98666	51.518
1.98833	51.496
1.99000	51.474
1.99166	51.452
1.99333	51.429
1.99500	51.408
1.99666	51.385
1.99833	51.362
2.00000	51.338
2.00166	51.314
2.00333	51.290
2.00500	51.266
2.00667	51.243
2.00833	51.221
2.01000	51.198
2.01167	51.177
2.01333	51.155
2.01500	51.134
2.01667	51.113
2.01833	51.092
2.02000	51.071
2.02167	51.050
2.02333	51.029
2.02500	51.007
2.02667	50.986
2.02833	50.966
2.03000	50.946
2.03167	50.927
2.03333	50.907
2.03500	50.888
2.03667	50.869
2.03833	50.851
2.04000	50.832
2.04167	50.812
2.04333	50.793
2.04500	50.774
2.04667	50.754
2.04833	50.735
2.05000	50.715
2.05167	50.696
2.05334	50.677
2.05500	50.659
2.05667	50.642
2.05834	50.625
2.06000	50.609
2.06167	50.592
2.06334	50.576
2.06500	50.559
2.06667	50.543
2.06834	50.525
2.07000	50.507
2.07167	50.489
2.07334	50.470
2.07500	50.451
2.07667	50.433
2.07834	50.415
2.08000	50.399
2.08167	50.383
2.08334	50.368
2.08500	50.354
2.08667	50.339
2.08834	50.325
2.09000	50.311
2.09167	50.297
2.09334	50.282
2.09500	50.266
2.09667	50.250
2.09834	50.234
2.10001	50.217
2.10167	50.200
2.10334	50.184
2.10501	50.168
2.10667	50.152
2.10834	50.137
2.11001	50.122
2.11167	50.106
2.11334	50.091
2.11501	50.075
2.11667	50.059
2.11834	50.044
2.12001	50.029
2.12167	50.014
2.12334	50.000
2.12501	49.986
2.12667	49.973
2.12834	49.959
2.13001	49.946
2.13167	49.933
2.13334	49.919
2.13501	49.905
2.13667	49.890
2.13834	49.875
2.14001	49.860
2.14167	49.846
2.14334	49.831
2.14501	49.817
2.14668	49.804
2.14834	49.790
2.15001	49.778
2.15168	49.765
2.15334	49.753
2.15501	49.742
2.15668	49.730
2.15834	49.718
2.16001	49.706
2.16168	49.694
2.16334	49.682
2.16501	49.670
2.16668	49.657
2.16834	49.645
2.17001	49.633
2.17168	49.620
2.17334	49.608
2.17501	49.596
2.17668	49.583
2.17834	49.571
2.18001	49.559
2.18168	49.546
2.18334	49.534
2.18501	49.521
2.18668	49.507
2.18834	49.494
2.19001	49.481
2.19168	49.467
2.19335	49.455
2.19501	49.442
2.19668	49.431
2.19835	49.420
2.20001	49.409
2.20168	49.400
2.20335	49.390
2.20501	49.381
2.20668	49.371
2.20835	49.362
2.21001	49.352
2.21168	49.342
2.21335	49.331
2.21501	49.320
2.21668	49.308
2.21835	49.297
2.22001	49.285
2.22168	49.273
2.22335	49.262
2.22501	49.251
2.22668	49.241
2.22835	49.230
2.23001	49.221
2.23168	49.211
2.23335	49.202
2.23501	49.193
2.23668	49.184
2.23835	49.175
2.24002	49.166
2.24168	49.157
2.24335	49.147
2.24502	49.138
2.24668	49.128
2.24835	49.119
2.25002	49.109
2.25168	49.100
2.25335	49.091
2.25502	49.081
2.25668	49.072
2.25835	49.063
2.26002	49.055
2.26168	49.046
2.26335	49.037
2.26502	49.028
2.26668	49.019
2.26835	49.010
2.27002	49.000
2.27168	48.991
2.27335	48.982
2.27502	48.973
2.27668	48.963
2.27835	48.952
2.28002	48.941
2.28168	48.928
2.28335	48.915
2.28502	48.901
2.28668	48.888
2.28835	48.874
2.29002	48.861
2.29169	48.848
2.29335	48.836
2.29502	48.825
2.29669	48.815
2.29835	48.806
2.30002	48.798
2.30169	48.790
2.30335	48.783
2.30502	48.775
2.30669	48.768
2.30835	48.761
2.31002	48.753
2.31169	48.746
2.31335	48.739
2.31502	48.733
2.31669	48.726
2.31835	48.720
2.32002	48.714
2.32169	48.707
2.32335	48.701
2.32502	48.694
2.32669	48.686
2.32835	48.677
2.33002	48.668
2.33169	48.658
2.33335	48.647
2.33502	48.636
2.33669	48.625
2.33836	48.614
2.34002	48.603
2.34169	48.592
2.34336	48.583
2.34502	48.574
2.34669	48.565
2.34836	48.557
2.35002	48.550
2.35169	48.542
2.35336	48.535
2.35502	48.527
2.35669	48.519
2.35836	48.511
2.36002	48.503
2.36169	48.495
2.36336	48.486
2.36502	48.478
2.36669	48.470
2.36836	48.461
2.37002	48.453
2.37169	48.445
2.37336	48.436
2.37502	48.428
2.37669	48.419
2.37836	48.410
2.38002	48.401
2.38169	48.392
2.38336	48.384
2.38503	48.377
2.38669	48.370
2.38836	48.364
2.39003	48.359
2.39169	48.355
2.39336	48.352
2.39503	48.350
2.39669	48.348
2.39836	48.346
2.40003	48.344
2.40169	48.341
2.40336	48.337
2.40503	48.333
2.40669	48.328
2.40836	48.322
2.41003	48.316
2.41169	48.310
2.41336	48.304
2.41503	48.298
2.41669	48.292
2.41836	48.287
2.42003	48.282
2.42169	48.277
2.42336	48.272
2.42503	48.267
2.42669	48.262
2.42836	48.256
2.43003	48.250
2.43170	48.245
2.43336	48.239
2.43503	48.233
2.43670	48.229
2.43836	48.224
2.44003	48.220
2.44170	48.217
2.44336	48.214
2.44503	48.212
2.44670	48.210
2.44836	48.208
2.45003	48.205
2.45170	48.202
2.45336	48.198
2.45503	48.194
2.45670	48.189
2.45836	48.185
2.46003	48.180
2.46170	48.175
2.46336	48.170
2.46503	48.166
2.46670	48.162
2.46836	48.158
2.47003	48.154
2.47170	48.151
2.47336	48.147
2.47503	48.143
2.47670	48.138
2.47837	48.134
2.48003	48.128
2.48170	48.123
2.48337	48.119
2.48503	48.114
2.48670	48.110
2.48837	48.107
2.49003	48.104
2.49170	48.103
2.49337	48.102
2.49503	48.102
2.49670	48.102
2.49837	48.102
2.50003	48.102
2.50170	48.101
2.50337	48.100
2.50503	48.098
2.50670	48.096
2.50837	48.094
2.51003	48.092
2.51170	48.090
2.51337	48.089
2.51503	48.087
2.51670	48.085
2.51837	48.084
2.52003	48.083
2.52170	48.082
2.52337	48.080
2.52504	48.079
2.52670	48.078
2.52837	48.077
2.53004	48.078
2.53170	48.079
2.53337	48.082
2.53504	48.086
2.53670	48.091
2.53837	48.099
2.54004	48.108
2.54170	48.118
2.54337	48.130
2.54504	48.142
2.54670	48.155
2.54837	48.168
2.55004	48.181
2.55170	48.195
2.55337	48.208
2.55504	48.222
2.55670	48.237
2.55837	48.252
2.56004	48.267
2.56170	48.283
2.56337	48.300
2.56504	48.317
2.56670	48.334
2.56837	48.351
2.57004	48.368
2.57171	48.384
2.57337	48.401
2.57504	48.418
2.57671	48.436
2.57837	48.457
2.58004	48.480
2.58171	48.506
2.58337	48.536
2.58504	48.570
2.58671	48.607
2.58837	48.648
2.59004	48.693
2.59171	48.740
2.59337	48.789
2.59504	48.840
2.59671	48.892
2.59837	48.945
2.60004	48.999
2.60171	49.055
2.60337	49.111
2.60504	49.170
2.60671	49.229
2.60837	49.291
2.61004	49.353
2.61171	49.416
2.61337	49.480
2.61504	49.543
2.61671	49.607
2.61838	49.670
2.62004	49.734
2.62171	49.799
2.62338	49.867
2.62504	49.937
2.62671	50.013
2.62838	50.093
2.63004	50.180
2.63171	50.272
2.63338	50.371
2.63504	50.475
2.63671	50.584
2.63838	50.699
2.64004	50.816
2.64171	50.937
2.64338	51.060
2.64504	51.184
2.64671	51.310
2.64838	51.437
2.65004	51.567
2.65171	51.698
2.65338	51.832
2.65504	51.968
2.65671	52.106
2.65838	52.245
2.66004	52.384
2.66171	52.523
2.66338	52.661
2.66505	52.800
2.66671	52.938
2.66838	53.077
2.67005	53.218
2.67171	53.360
2.67338	53.507
2.67505	53.658
2.67671	53.816
2.67838	53.982
2.68005	54.155
2.68171	54.335
2.68338	54.523
2.68505	54.717
2.68671	54.916
2.68838	55.119
2.69005	55.325
2.69171	55.533
2.69338	55.743
2.69505	55.954
2.69671	56.166
2.69838	56.380
2.70005	56.595
2.70171	56.812
2.70338	57.031
2.70505	57.251
2.70671	57.471
2.70838	57.692
2.71005	57.911
2.71171	58.129
2.71338	58.345
2.71505	58.560
2.71672	58.773
2.71838	58.986
2.72005	59.200
2.72172	59.416
2.72338	59.636
2.72505	59.861
2.72672	60.092
2.72838	60.332
2.73005	60.579
2.73172	60.833
2.73338	61.093
2.73505	61.359
2.73672	61.628
2.73838	61.901
2.74005	62.175
2.74172	62.451
2.74338	62.726
2.74505	63.002
2.74672	63.277
2.74838	63.552
2.75005	63.828
2.75172	64.104
2.75338	64.380
2.75505	64.656
2.75672	64.930
2.75838	65.203
2.76005	65.472
2.76172	65.739
2.76339	66.004
2.76505	66.267
2.76672	66.530
2.76839	66.793
2.77005	67.057
2.77172	67.323
2.77339	67.593
2.77505	67.868
2.77672	68.149
2.77839	68.435
2.78005	68.725
2.78172	69.019
2.78339	69.315
2.78505	69.614
2.78672	69.913
2.78839	70.213
2.79005	70.513
2.79172	70.813
2.79339	71.113
2.79505	71.411
2.79672	71.710
2.79839	72.008
2.80005	72.306
2.80172	72.604
2.80339	72.900
2.80505	73.194
2.80672	73.485
2.80839	73.774
2.81006	74.059
2.81172	74.343
2.81339	74.624
2.81506	74.904
2.81672	75.183
2.81839	75.463
2.82006	75.743
2.82172	76.025
2.82339	76.311
2.82506	76.600
2.82672	76.893
2.82839	77.190
2.83006	77.488
2.83172	77.788
2.83339	78.089
2.83506	78.390
2.83672	78.691
2.83839	78.992
2.84006	79.291
2.84172	79.589
2.84339	79.886
2.84506	80.181
2.84672	80.475
2.84839	80.767
2.85006	81.058
2.85172	81.345
2.85339	81.630
2.85506	81.910
2.85673	82.186
2.85839	82.459
2.86006	82.730
2.86173	82.998
2.86339	83.264
2.86506	83.529
2.86673	83.792
2.86839	84.054
2.87006	84.317
2.87173	84.580
2.87339	84.844
2.87506	85.108
2.87673	85.372
2.87839	85.634
2.88006	85.895
2.88173	86.154
2.88339	86.411
2.88506	86.667
2.88673	86.920
2.88839	87.171
2.89006	87.419
2.89173	87.664
2.89339	87.905
2.89506	88.144
2.89673	88.380
2.89839	88.612
2.90006	88.841
2.90173	89.065
2.90340	89.284
2.90506	89.499
2.90673	89.711
2.90840	89.921
2.91006	90.129
2.91173	90.336
2.91340	90.540
2.91506	90.742
2.91673	90.941
2.91840	91.137
2.92006	91.331
2.92173	91.523
2.92340	91.712
2.92506	91.896
2.92673	92.077
2.92840	92.253
2.93006	92.425
2.93173	92.593
2.93340	92.759
2.93506	92.922
2.93673	93.083
2.93840	93.241
2.94006	93.397
2.94173	93.549
2.94340	93.699
2.94506	93.847
2.94673	93.991
2.94840	94.132
2.95007	94.270
2.95173	94.406
2.95340	94.538
2.95507	94.668
2.95673	94.797
2.95840	94.924
2.96007	95.050
2.96173	95.175
2.96340	95.298
2.96507	95.419
2.96673	95.538
2.96840	95.654
2.97007	95.767
2.97173	95.877
2.97340	95.983
2.97507	96.085
2.97673	96.184
2.97840	96.279
2.98007	96.371
2.98173	96.461
2.98340	96.549
2.98507	96.635
2.98673	96.719
2.98840	96.802
2.99007	96.883
2.99173	96.961
2.99340	97.038
2.99507	97.113
2.99674	97.180
2.99840	97.238
3.00007	97.269
3.00174	97.296
}
}
}
[FUNCTION]
{
Function	0
Description	ANALOG
}
[FUNCTION]
{
Function	0
Description	ANALOG
}
[FUNCTION]
{
Function	0
Description	ANALOG
}
[FUNCTION]
{
Function	0
Description	ANALOG
}
[FUNCTION]
{
Function	0
Description	ANALOG
}
[ACCEPTANCE CRITERIA]
{
Threshold Mode (MS+)	Relative
Threshold (MS+)	5.00
Confirmation Threshold (MS+)	10.00
 	 
Threshold Mode (MS-)	Relative
Threshold (MS-)	5.00
Confirmation Threshold (MS-)	10.00
 	 
 	 
Accurate Mass Primary Threshold	False
Accurate Mass Primary Threshold Value (PPM)	5.00
Accurate Mass Secondary Threshold	False
Accurate Mass Secondary Threshold Value (PPM)	10.00
 	 
 	 
Enable Chromatogram Test	True
Chromatogram Test Primary Threshold (%)	10
Chromatogram Test Use Secondary Threshold	True
Chromatogram Test Secondary Threshold (%)	5
 	 
 	 
Use iFit (norm) Value as Confirmation Test	False
iFit Test Primary Threshold
iFit Test Use Secondary Threshold	False
iFit Test Secondary Threshold
 	 
 	 
Chromatogram Internal Standard Enabled	False
IS Function	1
IS Adducted Mass	0.00
IS Mass Window	0.00
IS Intensity Threshold	0.00
}
[INLET PARAMETERS]
{
-- HEADER --
Header
Acquired File Name:   Bode - AlKa - 23 - on-1_20191023
Acquired Date:        23-Oct-2019
Acquired Time:        10:45:48
Job Code:             Bode - AlKa - 23 - on
Task Code:            
User Name:            Bode - xxx
Laboratory Name:      
Instrument:           ACQ-SQD2#LCA574
Conditions:           
Submitter:            Bode - xxx
SampleID:             Bode - AlKa - 23 - on-1_20191023
Bottle Number:        1:41
Description:          AlKa - 23 - on
-- END HEADER --
-- CALIBRATION --

Instrument Calibration: 
Calibration File: E:\Masslynx Projects\MoBiAS open access.PRO\ACQUDB\Calibration_20170613.cal
Parameters
MS1 Static:       
Mass:             20 Da to 3023 Da.
Resolution:       11.6/15.0
Ion Energy:       -0.6
Reference File:   Naics
Acquisition File: STAT
MS1 Scanning:     
Mass:             10 Da to 3072 Da.
Resolution:       11.6/15.0
Ion Energy:       -0.6
Reference File:   Naics
Acquisition File: SCN
MS1 Scan Speed Compensation:   
Scan:             100 to 15002 amu/sec.
Resolution:       11.6/15.0
Ion Energy:       -0.6
Reference File:   Naics
Acquisition File: FAST
Calibration Time: 18:46
Calibration Date: 06/13/17
Coefficients
MS1 Static:       -0.000000000000*x^4 + 0.000000000101*x^3 + -0.000000215959*x^2 + 1.000397866885*x +-0.275485390725
Function 1:       -0.000000000000*x^4 + 0.000000000141*x^3 + -0.000000267000*x^2 + 1.000407274354*x +-0.366320883415
Function 2:       -0.000000000000*x^4 + 0.000000000141*x^3 + -0.000000267000*x^2 + 1.000407274354*x +-0.366320883415
Function 3:       None

-- END CALIBRATION --
-- TUNE --

-- END TUNE --
-- MS --


Parameters for E:\Masslynx Projects\MoBiAS open access.PRO\ACQUDB\FAST_LowMass_From100to500Da_PosNeg.EXP

Data Processing:
SIR / MRM Chromatogram Spike Removal	ON
SIR / MRM Smoothing		OFF
Smoothing window size (scans)	3
Number of smooths		2


Prescan Statistics:
Initial Average Intensity	0.0042
Initial Average Std Dev		0.1426
Bunch Zero Level		0.0000
Bunch Std Dev			0.0000
Bunch Threshold			0.0001
Spike Removal Std Dev		0.0002


Method Events:
Initial Stop Flow:	No Change
Initial Switch 2:	No Change
Initial Switch 3:	No Change
Initial Switch 4:	No Change
Initial Infusion:	No Change
Initial Flow State:	Waste
Initial Flow Rate:	5
Initial Reservoir:	No Action
API Probe Delay Temp:	20
Initial Refill:		No Action
Timed Events Enabled
Event	Time(Sec)	Name		Action
1	0.00		Flow State	Waste
2	30.00		Flow State	LC
3	210.00		Flow State	Waste


Source Information:
Type - ESI
Status - Option Connector Disconnected

Ion Count Threshold:	30.0000

Instrument Parameters - Function 1:
Parameter File - E:\Masslynx Projects\MoBiAS open access.PRO\ACQUDB\Instrument_OA_settings_15Dec2017.IPR
Polarity	ES+
Calibration	Dynamic 1
Capillary (kV)	3.50
Cone (V)	30.00
RF (V)	2.50
Extractor (V)	3.00
Source Temperature (°C)	150
Desolvation Temperature (°C)	350
Cone Gas Flow (L/Hr)	50
Desolvation Gas Flow (L/Hr)	1000
LM 1 Resolution	13.40
HM 1 Resolution	14.20
Ion Energy 1	-0.40
Gain	1.00
Active Reservoir	B
Cone Energy Ramp :Disabled
Probe Temperature Ramp :Disabled
Collision Energy Ramp :Disabled

Instrument Parameters - Function 2:
Parameter File - E:\Masslynx Projects\MoBiAS open access.PRO\ACQUDB\Instrument_OA_settings_15Dec2017.IPR
Polarity	ES-
Calibration	Dynamic 1
Capillary (kV)	2.50
Cone (V)	40.00
RF (V)	2.50
Extractor (V)	3.00
Source Temperature (°C)	150
Desolvation Temperature (°C)	350
Cone Gas Flow (L/Hr)	50
Desolvation Gas Flow (L/Hr)	1000
LM 1 Resolution	15.00
HM 1 Resolution	15.00
Ion Energy 1	0.10
Gain	1.00
Active Reservoir	B
Cone Energy Ramp :Disabled
Probe Temperature Ramp :Disabled
Collision Energy Ramp :Disabled


Engineers Settings:
Low Mass Position       	517
High Mass Position      	424
Low Mass Resolution     	515
High Mass Resolution    	444
Resolution Linearity    	800
High Mass DC Balance    	-0.20
DC Polarity             	Positive
HM RF Lens Correction + 	0.00
HM RF Lens Correction - 	0.00


   Instrument Readbacks   
Capillary (kV)	0.98
Cone (V)	13.43
Extractor (V)	2.69
Source Temperature (°C)	147
Desolvation Temperature (°C)	349
Cone Gas Flow (L/Hr)	50
Desolvation Gas Flow (L/Hr)	993


Inter-scan delays:
Automatic Mode
MS Delay Table
         R     delay
<=   1.000     0.003
<=   1.500     0.004
<=   3.000     0.005
<=   7.000     0.007
<=  11.000     0.009
<=  30.000     0.010
>   30.000     0.011


-- END MS --
-- INLET --


ACE Experimental Record


Inlet Method File: e:\masslynx projects\mobias open access.pro\acqudb\fast_acn_h2o_fullrange

---------------------   Run method parameters   ----------------

-- PUMP --

Waters ACQUITY QSM
 Solvent A Name: Water + 0.1 % Formic acid 
 Solvent B Name: Acetonitrile + 0.1 % Formic acid 
 Solvent C Name: Methanol + 0.1% Formic acid 
 Solvent D Name:  
 Low Pressure Limit: 0.000 bar
 High Pressure Limit: 1034.200 bar
 Seal Wash Period: 5.00 min
 [Gradient Table]
  Time(min) Flow Rate(mL/min) %A %B %C %D Curve 
 1. Initial 0.500 98.0 2.0 0.0 0.0 Initial 
 2. 1.00 0.500 2.0 98.0 0.0 0.0 6 
 3. 2.00 0.500 2.0 98.0 0.0 0.0 6 
 4. 2.10 0.500 98.0 2.0 0.0 0.0 6 
 5. 3.50 0.500 98.0 2.0 0.0 0.0 6 
 Comment:  
 Flow Ramp Rate: 0.45 min
 D Solvent Selection (if supported): No Change 
 System Pressure Data Channel: Yes 
 Flow Rate Data Channel: Yes 
 %A Data Channel: Yes 
 %B Data Channel: Yes 
 %C Data Channel: No 
 %D Data Channel: No 
 Primary Data Channel: No 
 Accumulator Data Channel: No 
 Degasser Data Channel: No 
 Gradient Start: At Injection 
 Gradient Start Volume: 0 uL
 Gradient Start Time: 0.00 min
 Participate in pre-analysis: No 

-- END PUMP --

-- DETECTOR -- 

Waters Acquity CM

 Target Column Temperature: 40.0 C
 Column Temperature Alarm Band: 2.0 C
 Shutdown All Columns: No 
 Column Valve Position: Column 1 
 Equilibration Time: 0.1 min
 External Valve 1: No Change 
 External Valve 2: No Change 
 External Valve 3: No Change 
 Comment:  
 Column Temperature Data Channel: No 
 Preheater Temperature Data Channel: No 


-- END DETECTOR -- 

-- DETECTOR -- 

Waters Acquity PDA

 Run Time: 3.50 min
 PDA Detector Type: UPLC eLambda 800 nm 
 Lamp: On 
 Sampling Rate: 10 points/sec
 Filter Time Constant: 0.2000 sec
 Exposure Time: Auto msec
 Negative Absorbance Margin: -0.07 AU
 Interpolate 656 nm Line Region: No 
 Interpolate 2nd order filter (340nm) Region: No 
 Use UV Blocking Filter: No 
3D Channel...
 Range: 210  - 600  
 Resolution: 1.2 nm
Channel 1...
 Data Mode: Absorbance at 220  
 Resolution: 4.8 nm
Channel 2...
 Data Mode: Absorbance at 254  
 Resolution: 4.8 nm
 Initial Switch 1: No Change 
 Pulse Width: 1.0 sec
 Rect Wave Period: 0.2 sec


-- END DETECTOR -- 

-- AUTOSAMPLER --

Waters ACQUITY FTN AutoSampler 
 Run Time: 3.50 min
 Comment:  
 Load Ahead: Disabled 
 Loop Offline: Automatic min
 Wash Solvent Name: 9:1 ACN:H2O 
 Pre-Inject Wash Time: 0.0 sec
 Post-Inject Wash Time: 6.0 sec
 Purge Solvent Name: 90% H2O/ACN 
 Dilution: Disabled 
 Dilution Volume: 0 uL
 Delay Time: 0 min
 Dilution Needle Placement: 4 mm
 Target Column Temperature: Off C
 Target Sample Temperature: Off C
 Syringe Draw Rate: Automatic 
 Needle Placement: Automatic 
 Pre-Aspirate Air Gap: Automatic 
 Post-Aspirate Air Gap: Automatic 
 Column Temperature Data Channel: No 
 Room Temperature Data Channel: No 
 Sample Temperature Data Channel: No 
 Sample Organizer Temperature Data Channel: No 
 Sample Pressure Data Channel: No 
 Preheater Temperature Data Channel: No 
 Seal Force Data Channel: No 
 No Injection Mode Enabled: No 
 Run Events: No 


Sample Run Injection Parameter

Injection Volume (ul)   -   2.00
-- END AUTOSAMPLER --

----------------------------  oOo  -----------------------------


End of experimental record.



------------------- Waters ACQUITY QSM Postrun Report  ---------------



 Firmware Version: 1.50.237 (May 18 2011) 
 Software Version: 1.50.1621 
 Checksum: 0xae400516 
 Serial Number: F13QSM619A 
 Minimum System Pressure: 13.7 bar
 Maximum System Pressure: 28.4 bar
 Average System Pressure: 21.8 bar

----------------------------  oOo  -----------------------------



------------------- Waters ACQUITY FTN Postrun Report  ---------------



 Software Version: 1.50.1481 
 Firmware Version: 1.51.331 (Jan 31 2012) 
 Checksum: 0x377ae410 
 Serial Number: F13SDI377G 
 Sample Syringe Size: 100.0 
 Extension Loop Size: 0.0 
 Needle Size: 15.0 
 Minimum Sample Temperature: 0.0 
 Maximum Sample Temperature: 0.0 
 Average Sample Temperature: 0.0 
 Minimum Column Temperature: 0.0 
 Maximum Column Temperature: 0.0 
 Average Column Temperature: 0.0 

----------------------------  oOo  -----------------------------



------------------- Generic Instrument Postrun Report  ---------------


 Software Version: 1.50.1121 
 Firmware Version: 1.51.6030 (May 11 2011) 
 Checksum: 0xe6bba016 
 Serial Number: D13UPL538A 
 Lamp On/Off Event: No 
 Lamp Life: 15475.00 hours
 Lamp Serial Number: 1858ABAC 
 Exposure Time: 100.000 msec
 Lambda1: 185.885 
 Lambda512: 804.373 
 Flow Cell Type: Analytical Teflon AF 
 Flow Cell Path Length: 10.00 mm
 Flow Cell Volume: 0.50 microliters
 Flow Cell Serial Number: PDA10-04117 
 Flow Cell Part Number: 205015017 
 Optics Temperature Stabilzation Setting: Normal Temperature 

----------------------------  oOo  -----------------------------

---------------Failed to get IECordHost2 Interface ---------



------------------- Waters Acquity CM Postrun Report  ---------------



 Software Version: 1.51.1684 
 Firmware Version: 1.51.107 (Aug 03 2011) 
 Checksum: 0x19b50b4d 
 Serial Number: F13CMP190G 
 Valve Position: 1 
 ColumnType: ACQUITY UPLC® BEH C18 1.7µm 
 Column Serial Number: 03303833015144 
 Total Injections on Column: 1256 
 Minimum Column Temperature: 40.0 
 Maximum Column Temperature: 40.0 
 Average Column Temperature: 0.0 

----------------------------  oOo  -----------------------------

------------------- Active eCord Data ---------------


Valve Current Position: 1
Column Name: ACQUITY UPLC® BEH C18 1.7µm
Part Number: 186002350
Serial Number: 03303833015144
Injection Count: 1256
Injection Count Threshold: 0
Date of First Injection: 9/16/2019  10:15:9 AM
Date of Last Injection: 10/23/2019  10:45:57 AM
Sample Count: 1037
Sample Set Count: 779
Maximum Pressure: 0 psi
Date of Maximum Pressure: 1/1/1970  1:0:0 AM
Maximum Temperature: 40.0 °C
Date of Maximum Temperature: 10/9/2019  7:5:4 AM

----------------------------  oOo  -----------------------------



-- END INLET --

-- FRACTION --


-- END FRACTION --
-- FUNCTION --

Function 1
Scans in function:         478
Cycle time (secs):         Automatic
Scan duration (secs):      0.200
Inter Scan Delay (secs):   Automatic
Start and End Time(mins):   0.000 to 3.500
Ionization mode:           ES+
Data type:                 Accurate Mass
Function type:             Scan                       
Mass range:                 100 to 500

Function 2
Scans in function:         477
Cycle time (secs):         Automatic
Scan duration (secs):      0.200
Inter Scan Delay (secs):   Automatic
Start and End Time(mins):   0.000 to 3.500
Ionization mode:           ES-
Data type:                 Accurate Mass
Function type:             Scan                       
Mass range:                 100 to 500

Function 3
Scans in function:         2101
Function type:             Diode Array
Wavelength range (nm):      210 to 600

-- END FUNCTION --

}
}
